timestamps,TP9,AF7,AF8,TP10,Right AUX
1731821826.7760923,-6.260592525824904,41.5764678074047,2.539392069913447,18.441446681506932,102.0
1731821826.7760923,10.292204678058624,-8.639168897643685,14.241539031267166,-8.998199293389916,102.0
1731821826.7905943,11.062624068930745,51.61435928847641,14.824963424354792,23.72966521885246,103.0
1731821826.7905943,7.461100411601365,4.293405149132013,15.015698322094977,-5.953920729458332,103.0
1731821826.7913156,10.44180067628622,-42.919091891497374,8.347456701099873,-30.360507840290666,104.0
1731821826.7913156,1.3800230836495757,21.811096541583538,12.708180049434304,11.444093864411116,104.0
1731821826.8050103,4.43178144749254,29.40683335158974,9.383408988825977,9.005679093301296,105.0
1731821826.8050103,9.596583286300302,-42.107533601112664,14.50333202816546,-35.158799483440816,105.0
1731821826.8206022,10.681154273450375,11.978899558074772,17.061423597857356,9.966833381913602,106.0
1731821826.8206022,5.938961129635572,52.81860707420856,6.769218919798732,23.3070565238595,106.0
1731821826.8212647,12.315490554086864,-24.234551712870598,13.736652537249029,-22.90314732864499,107.0
1731821826.8212647,5.407895335927606,-20.442293157801032,16.92678719945252,-15.464486316777766,107.0
1731821826.8348727,-1.7876721788197756,51.37874559126794,13.28786454256624,26.706625583581626,108.0
1731821826.8348727,-1.7091342797502875,-1.6305963806807995,8.770065396092832,-7.999646005220711,108.0
1731821826.8505483,8.949580593965948,-38.18437854759395,12.932574046775699,-26.280276988632977,109.0
1731821826.8505483,2.6366294687613845,36.91655246261507,12.027518257498741,16.810850300826132,109.0
1731821826.8512816,13.011111945845187,47.51916883699596,16.93800689931959,20.045863762497902,110.0
1731821826.8512816,1.929788377135992,-47.47055013757199,10.505378975532949,-39.96831082645804,110.0
1731821826.8649158,11.451573664322495,5.591150433756411,17.72338589001447,-1.653035780414939,111.0
1731821826.8649158,14.51829162798822,57.07461322378367,22.327202735468745,30.050096143968403,111.0
1731821826.8806365,2.2364601735025644,-28.052989567629993,12.405248153023422,-27.667779872193933,112.0
1731821826.8806365,1.3912427835166454,-18.804216977208853,11.103762968443334,-8.579330498352647,112.0
1731821826.8813195,0.04113889951258898,51.89111188519746,13.239245843142271,29.530250050127506,113.0
1731821826.8813195,13.003632145933807,12.771758348681033,10.722293172962964,-10.236106178723276,113.0
1731821826.8949983,6.107256627641618,-39.85237392783165,0.6806617919355631,-24.806756406091154,114.0
1731821826.8949983,17.31199689488858,39.02585603762418,33.30380910541862,25.255544400773942,114.0
1731821826.9109669,-7.318984213285148,30.480184638872743,15.950673311017454,25.37522119935602,115.0
1731821826.9109669,-10.06407078076154,-42.489003396593034,7.468580211512744,-27.895913769491017,115.0
1731821826.9112484,-0.23187379725277424,4.9291881415992975,11.844263159669936,3.4407079592347145,116.0
1731821826.9112484,4.708534044213593,55.298160744830966,28.023070367984474,22.19256633706391,116.0
1731821826.9249506,4.3682031482458115,-25.969865292310715,25.453759098425508,-32.451111915521324,117.0
1731821826.9249506,5.561231234110892,-14.89228162355721,24.634721008129418,-19.630734867416322,117.0
1731821826.95703,-2.849803766235709,47.94551743194461,19.593335867859423,24.18593301344663,118.0
1731821826.95703,1.9372681770473719,-0.9499345887452364,17.169880696572363,-2.8722431659698486,118.0
1731821826.9578445,0.7031011916697025,-46.056867954321206,15.539284315891564,-24.320569411851466,119.0
1731821826.9578445,-4.974066941067576,26.56450938526541,17.910380887798965,25.034890303388238,119.0
1731821826.9584582,7.23296651430428,30.831735234707594,27.35736817587167,17.203539796173573,120.0
1731821826.9584582,11.70588686130941,-41.36329350993037,24.88903420511633,-37.585994554683566,120.0
1731821826.9592626,10.950427070260048,13.343963041901588,28.494297762401402,3.4332281593233347,121.0
1731821826.9592626,3.264932661317289,54.87555204983801,24.645940707996488,26.17181988991797,121.0
1731821826.9698582,8.811204295605421,-23.27713732421398,23.830642517656088,-22.48053863365203,122.0
1731821826.9698582,4.925448241643608,-9.420807988382876,27.058176179416478,-20.434813357889652,122.0
1731821826.9849577,0.44130819477140903,60.2497882861644,27.293789876624942,33.32998840510845,123.0
1731821826.9849577,4.6075567454099655,12.311750654131174,23.437953022308648,5.65098883304745,123.0
1731821827.0006232,2.853543666191399,-39.44472483266145,17.042724098078907,-36.781916064210236,124.0
1731821827.0006232,1.8736898778006434,38.4985301438719,17.065163497813046,15.29993071872741,124.0
1731821827.0013647,-0.6357829924672842,27.125494378618896,13.429980740882456,2.5506117697805166,125.0
1731821827.0013647,-5.157322038896382,-46.95818384364247,13.609495938755572,-47.18631774093956,125.0
1731821827.0149558,-4.222347049973905,2.576791069470346,8.46339359972626,6.544824922457337,126.0
1731821827.0149558,-13.437460540793836,36.98761056177318,1.9522277768701315,14.996998822316527,126.0
1731821827.0305736,-8.594290098175406,-39.96083102654666,4.798291643150151,-30.95515193324536,127.0
1731821827.0305736,-3.6800615563988686,-18.54616388026625,8.583070398308337,-15.202693319879472,127.0
1731821827.0313032,-8.381115800701082,29.915459745563567,10.83449017163366,18.987472075037658,128.0
1731821827.0313032,6.772958819754422,-2.655328968539834,24.18593301344663,5.138622539117932,128.0
1731821827.0448816,2.9171219654381275,-49.0226086191833,15.430827217176557,-20.490911857225,129.0
1731821827.0448816,-0.7442400911822915,22.252404736354947,12.341669853776693,11.107502868399024,129.0
1731821827.0605564,-0.9686340885236859,13.489819140173495,10.516598675400019,12.566063851118088,130.0
1731821827.0605564,15.374728717841208,-42.54884179588407,24.702039207331836,-25.128387802280486,130.0
1731821827.0612795,5.363016536459327,21.055636750534177,19.234305472113192,17.599969191476703,131.0
1731821827.0612795,2.8385840663686395,47.4294112380594,14.49585222825408,23.557629820890725,131.0
1731821827.074828,12.319230454042554,-34.769849888049066,19.937406663782895,-27.521923773922026,132.0
1731821827.074828,17.465332793071866,-10.759692172519863,20.741485154256225,-3.508026158437133,132.0
1731821827.0905428,17.147441296838224,57.47852241899818,21.654020743444562,34.781069587916136,133.0
1731821827.0905428,14.177960732020438,12.932574046775699,19.903747564181685,-2.5244324700906873,133.0
1731821827.0912836,4.371943048201501,-31.916306221857667,10.744732572697103,-33.73763750027865,134.0
1731821827.0912836,20.96587915159762,34.466917991638184,20.449772957712412,12.618422450497746,134.0
1731821827.1049576,9.443247388117015,12.581023450940847,3.702500956133008,-5.415375135838985,135.0
1731821827.1049576,6.533605222590268,-56.75672172755003,1.7988918786868453,-47.81088103353977,135.0
1731821827.12104,6.881415918469429,-3.859576754271984,6.44384762365371,-13.302824142389,136.0
1731821827.12104,7.932327806018293,35.831981475465,7.517198910936713,14.937160423025489,136.0
1731821827.121343,15.183993820101023,-37.234443958848715,13.953566734679043,-31.01125043258071,137.0
1731821827.121343,21.568003044463694,-20.48717195726931,26.874921081587672,-16.425640605390072,137.0
1731821827.135121,17.596229291521013,54.3220468563959,10.243585978634655,20.87986145261675,138.0
1731821827.135121,16.87068870011717,-6.066117728129029,7.921108106151223,-18.194613284431398,138.0
1731821827.1505854,15.554243915714324,-40.11790682468563,11.062624068930745,-46.67769134696573,139.0
1731821827.1505854,12.988672546111047,27.110534778796136,6.791658319532871,6.645802221260965,139.0
1731821827.151286,12.581023450940847,26.93101958092302,12.824116948060691,-0.8227779902517796,140.0
1731821827.151286,17.091342797502875,-47.709903734736145,18.47884568106383,-49.5424547130242,140.0
1731821827.165166,10.202447079122066,0.6096036927774549,9.203893790952861,-20.50213155709207,141.0
1731821827.165166,14.697806825861335,59.1016389997676,13.373882241547108,2.4047556715086102,141.0
1731821827.1805692,21.36230854690075,-28.759830659255385,15.348549418151379,-35.607587478123605,142.0
1731821827.1805692,12.921354346908629,-13.459899940527976,15.587903015315533,-28.20258556585759,142.0
1731821827.181372,1.61189688090235,46.894605544395745,5.924001529812813,1.1331896865740418,143.0
1731821827.181372,4.925448241643608,-15.083016521297395,8.515752199105918,-32.98965750914067,143.0
1731821827.195021,12.207033455371857,-36.60240086633712,6.772958819754422,-54.65115805249661,144.0
1731821827.195021,22.050450138747692,26.052143091335893,22.46931893378496,3.6015236573293805,144.0
1731821827.210558,16.365802206099033,24.9002539049834,13.852589435875416,-5.796844931319356,145.0
1731821827.210558,11.776944960467517,-46.831027245149016,15.169034220278263,-47.04420154262334,145.0
1731821827.211371,11.616129262372851,9.776098484173417,8.328757201321423,-4.304624848999083,146.0
1731821827.211371,9.67512118536979,49.79302801005542,16.650034602731466,17.869241988286376,146.0
1731821827.2250533,13.646894938312471,-22.215005736798048,11.107502868399024,-31.77045012358576,147.0
1731821827.2250533,15.041877621784806,-15.060577121563256,8.02208540495485,-16.86320890020579,147.0
1731821827.2405524,18.0824162857607,55.16726424638182,14.757645225152373,18.16095418483019,148.0
1731821827.2405524,18.10111578553915,5.187241238541901,14.985779122449458,-18.822916476987302,148.0
1731821827.241296,8.86730279494077,-37.215744459070265,10.654974973760545,-50.18197760544717,149.0
1731821827.241296,17.502731792628765,41.07906111329794,10.49041937571019,1.1780684860423207,149.0
1731821827.254897,16.616375503130257,32.346394716762006,15.385948417708278,0.7180607914924622,150.0
1731821827.254897,16.84824930038303,-47.0591611424461,17.24467869568616,-56.01996143627912,150.0
1731821827.2706392,21.137914549559355,-5.3330973368138075,21.122954949736595,-14.806263924576342,151.0
1731821827.2706392,2.9657406648620963,49.13854551780969,12.229472855105996,6.989873017184436,151.0
1731821827.2712536,18.95007307548076,-30.267010341398418,22.648834131658077,-36.36304726917297,152.0
1731821827.2712536,19.481138869188726,-17.233458995819092,20.689126554876566,-22.13646783772856,152.0
1731821827.2849493,4.992766440846026,50.21563670504838,6.933774517849088,22.94428622815758,153.0
1731821827.2849493,16.713612901978195,4.880569442175329,13.785271236672997,-10.591396674513817,153.0
1731821827.3005793,17.506471692584455,-30.670919536612928,16.13392840884626,-30.24831084161997,154.0
1731821827.3005793,11.571250462904572,40.33482102211565,16.668734102509916,2.9881800645962358,154.0
1731821827.3012986,12.771758348681033,33.66657940112054,17.424193893559277,-6.866456318646669,155.0
1731821827.3012986,15.146594820544124,-44.19065787643194,15.539284315891564,-48.502762525342405,155.0
1731821827.3150299,17.057683697901666,2.737606767565012,22.405740634538233,-9.835936883464456,156.0
1731821827.3150299,9.562924186699092,53.738622463308275,17.899161187931895,2.0307656759396195,156.0
1731821827.3306026,18.587302779778838,-21.556783344596624,16.52287800423801,-39.08943433687091,157.0
1731821827.3306026,11.922801058739424,-8.657868397422135,21.403447446413338,-19.75415156595409,157.0
1731821827.3313248,16.709873002022505,61.375498172827065,22.817129629664123,22.461839133873582,158.0
1731821827.3313248,14.694066925905645,-5.995059628970921,18.766817977651954,-24.866594805382192,158.0
1731821827.3449168,7.64061560947448,-36.475244267843664,15.041877621784806,-36.24337047059089,159.0
1731821827.3449168,4.502839546650648,33.48332430329174,11.186040767468512,3.751119655556977,159.0
1731821827.360614,1.5034397821873426,19.484878769144416,11.978899558074772,-7.034751816652715,160.0
1731821827.360614,2.0345055758953094,-43.984963378869,16.201246608048677,-49.4676567139104,160.0
1731821827.3613129,3.8109580548480153,15.232612519524992,7.932327806018293,-0.33285109605640173,161.0
1731821827.3613129,0.7965986905619502,48.40552512649447,4.551458246074617,22.050450138747692,161.0
1731821827.3749485,10.621315874159336,-15.759938413277268,12.386548653244972,-31.755490523763,162.0
1731821827.3749485,8.366156200878322,-6.290511725470424,12.394028453156352,-17.555090392008424,162.0
1731821827.3906264,7.2254867143929005,55.91150433756411,14.51455172803253,20.374974958598614,163.0
1731821827.3906264,12.992412446066737,9.24877259042114,13.175667543895543,-12.08735665678978,163.0
1731821827.3913767,3.6127433571964502,-41.87939970381558,10.05285108089447,-38.10958054848015,164.0
1731821827.3913767,5.381716036237776,38.793982240371406,10.127649080008268,3.384609459899366,164.0
1731821827.405006,5.722046932205558,31.45255862735212,14.49585222825408,10.505378975532949,165.0
1731821827.405006,14.690327025949955,-44.011142678558826,16.276044607162476,-37.15590605977923,165.0
1731821827.4206457,10.44180067628622,12.034998057410121,19.017391274683177,-0.5684647932648659,166.0
1731821827.4206457,13.747872237116098,49.78554821014404,15.614082315005362,24.765617506578565,166.0
1731821827.421382,7.341423613019288,-35.10270098410547,7.1020700158551335,-32.09582141973078,167.0
1731821827.421382,14.226579431444407,-0.6133435927331448,12.008818757720292,-17.68972679041326,167.0
1731821827.4350364,3.429488259367645,52.19404378160834,1.9784070765599608,21.34734894707799,168.0
1731821827.4350364,3.0741977635771036,-11.530111563391984,2.81988456659019,-23.501531321555376,168.0
1731821827.450631,11.365555965341628,-47.58274713624269,10.789611372165382,-36.65475946571678,169.0
1731821827.450631,9.776098484173417,39.5382223315537,7.199307414703071,1.2827856848016381,169.0
1731821827.4513016,4.252266249619424,20.88734125252813,7.670534809119999,-3.6875413563102484,170.0
1731821827.4513016,8.212820302695036,-56.46874943096191,12.44638705253601,-45.38742586225271,170.0
1731821827.464916,8.639168897643685,-0.9200153890997171,12.48004615213722,-1.3912427835166454,171.0
1731821827.464916,2.1541823744773865,57.06713342387229,14.241539031267166,22.88818772882223,171.0
1731821827.480554,11.66474796179682,-25.34904189966619,15.32611001841724,-15.636521714739501,172.0
1731821827.480554,5.078784139826894,-0.056098499335348606,13.553397439420223,-8.953320493921638,172.0
1731821827.4812455,6.0399384284392,56.85395912639797,10.400661776773632,33.13177370745689,173.0
1731821827.4812455,4.989026540890336,-9.723739884793758,0.9873335883021355,-20.408634058199823,173.0
1731821827.494916,9.25625239033252,-40.92572521511465,9.802277783863246,-36.59492106642574,174.0
1731821827.494916,6.716860320419073,32.798922611400485,14.447233528830111,15.584163115359843,174.0
1731821827.5105429,19.208126172423363,32.32769521698356,23.905440516769886,14.249018831178546,175.0
1731821827.5105429,12.143455156125128,-35.32335508149117,18.54990378022194,-38.016083049587905,175.0
1731821827.5112574,11.100023068487644,19.78407076559961,13.097129644826055,1.9372681770473719,176.0
1731821827.5112574,-2.1990611739456654,49.13854551780969,5.370496336370707,20.808803353458643,176.0
1731821827.5251663,-1.0546517875045538,-39.283909134566784,11.021485169418156,-37.33916115760803,177.0
1731821827.5251663,9.379669088870287,-16.15262790862471,19.477398969233036,-11.085063468664885,177.0
1731821827.540593,14.45471332874149,68.2943130908534,21.100515550002456,35.248557082377374,178.0
1731821827.540593,20.92474025208503,2.81240476667881,19.959846063517034,-5.819284331053495,178.0
1731821827.5413144,22.390781034715474,-31.239384329877794,28.251204265281558,-26.58320888504386,179.0
1731821827.5413144,9.734959584660828,37.81412845198065,24.96009230427444,22.529157333076,179.0
1731821827.5549629,0.605863792821765,20.431073457933962,4.659915344789624,1.3501038840040565,180.0
1731821827.5549629,10.224886478856206,-42.61615999508649,19.181946872733533,-42.455344296991825,180.0
1731821827.5705843,7.554597910493612,16.320923406630754,15.333589818328619,-6.44384762365371,181.0
1731821827.5705843,5.396675636060536,52.897144973278046,18.12729508522898,24.51504420954734,181.0
1731821827.5713603,18.389088082127273,-21.627841443754733,19.499838368967175,-22.001831439323723,182.0
1731821827.5713603,10.4866794757545,-2.6441092686727643,14.379915329627693,-9.413328188471496,182.0
1731821827.5850668,3.7324201557785273,49.96132350806147,12.304270854219794,11.081323568709195,183.0
1731821827.5850668,1.7128741797059774,-0.1047171987593174,7.203047314658761,-16.8594690002501,183.0
1731821827.6007264,10.658714873716235,-33.984470897354186,13.803970736451447,-23.658607119694352,184.0
1731821827.6007264,10.827010371722281,53.678784064017236,18.430226981639862,32.08460171986371,184.0
1731821827.601426,15.471966116689146,31.534836426377296,18.95755287539214,12.04995765723288,185.0
1731821827.601426,5.23212003801018,-47.313474339433014,19.74667176604271,-45.89231235627085,185.0
1731821827.6150737,4.656175444833934,8.86356289498508,10.819530571810901,-11.930280858650804,186.0
1731821827.6150737,18.91267407592386,61.04264707677066,22.13272793777287,28.008110768161714,186.0
1731821827.630869,13.904948035255075,-28.827148858457804,15.438307017087936,-35.256036882288754,187.0
1731821827.630869,6.870196218602359,-13.953566734679043,16.95670639909804,-20.805063453502953,187.0
1731821827.6314602,3.5117660583928227,54.68855705205351,10.83449017163366,41.46053090877831,188.0
1731821827.6314602,5.991319729015231,7.0646710162982345,16.702393202111125,-5.3742362363263965,188.0
1731821827.6779046,7.113289715722203,-34.93066558614373,19.582116167992353,-23.39307422284037,189.0
1731821827.6779046,11.223439767025411,42.52640239614993,20.55075025651604,18.781777577474713,189.0
1731821827.6786697,12.640861850231886,29.275936853140593,16.10026930924505,5.463993835262954,190.0
1731821827.6786697,17.629888391122222,-41.00426311418414,20.89108115248382,-39.272689434699714,190.0
1731821827.6794417,24.806756406091154,22.775990730151534,26.407433587126434,7.363863012753427,191.0
1731821827.6794417,16.283524407073855,62.41145046055317,10.292204678058624,27.192812577821314,191.0
1731821827.6798835,6.526125422678888,-30.14359364286065,7.790211607702076,-25.487418198026717,192.0
1731821827.6798835,17.27085799537599,-0.24683339707553387,35.981577473692596,-6.387749124318361,192.0
1731821827.6906052,6.152135427109897,49.92392450850457,24.253251212649047,24.754397806711495,193.0
1731821827.6906052,5.475213535130024,3.414528659544885,23.497791421599686,-9.533004987053573,193.0
1731821827.6913524,14.88854172360152,-33.954551697708666,21.2688110480085,-29.163739854469895,194.0
1731821827.6913524,12.06491725705564,42.111273501068354,29.081462055444717,22.55159673281014,194.0
1731821827.705176,16.16384760849178,28.849588258191943,29.44423235114664,14.47715272847563,195.0
1731821827.705176,18.54990378022194,-40.5367756197229,26.818822582252324,-32.802662511356175,195.0
1731821827.7206898,14.342516330070794,7.360123112797737,26.91979988105595,-1.5969372810795903,196.0
1731821827.7206898,2.056944975629449,40.74247011728585,18.452666381374,17.958999587222934,196.0
1731821827.721368,-4.906748741865158,-55.51133504230529,17.35687569435686,-39.3512273337692,197.0
1731821827.721368,6.888895718380809,-16.84824930038303,19.892527864314616,-18.98373217508197,197.0
1731821827.7352023,12.46882645227015,60.42556358408183,19.911227364093065,29.092681755311787,198.0
1731821827.7352023,13.725432837381959,4.117629851214588,25.188226201571524,-7.180607914924622,198.0
1731821827.7507052,11.305717566050589,-30.035136544145644,18.003878386691213,-31.718091524206102,199.0
1731821827.7507052,8.02582530491054,39.10439393669367,16.373282006010413,30.465225039049983,199.0
1731821827.7514033,10.46424007602036,22.293543635867536,24.754397806711495,5.991319729015231,200.0
1731821827.7514033,15.651481314562261,-44.082200777716935,22.54037703294307,-32.5707887141034,200.0
1731821827.7658868,-885.0454545640387,-409.9827927425504,-975.0199676980264,-412.80641720909625,0.0
1731821827.766631,-886.331980148796,-380.0748127968982,-978.2063624602742,-398.1422694828361,101.0
1731821827.766631,-896.2651544311084,-462.42366992123425,-983.3337652995251,-450.45972996298224,101.0
1731821827.780054,-898.1837231083773,-443.6643317434937,-984.0069472915493,-442.37032635882497,102.0
1731821827.780054,-896.7251621256582,-373.93763696961105,-984.8297252818011,-394.5220463257283,102.0
1731821827.7958508,-900.5959585797973,-432.1603994797915,-989.6130573251285,-427.6126811336726,103.0
1731821827.7958508,-905.3830305230804,-472.412942702882,-989.7140346239321,-455.93494349811226,103.0
1731821827.7965891,-900.2219685842283,-397.1100570950657,-983.8910103929229,-401.21646724641323,104.0
1731821827.7965891,-902.2265549604781,-416.29200396779925,-988.9249157332815,-420.0842625228688,104.0
1731821827.8101144,-902.2527342601679,-474.57834477722645,-981.92382301623,-448.544901185669,105.0
1731821827.8101144,-891.5603602868505,-413.1130890054628,-981.2917799237184,-413.80871039722115,105.0
1731821827.8257709,-897.5928189153783,-379.8130197999999,-991.4680477031507,-389.79855268169194,106.0
1731821827.8257709,-886.6835307446308,-452.8757053343579,-982.2791135120206,-439.0904340976849,106.0
1731821827.8265164,-883.3924187836237,-417.8216230496764,-974.9451696989127,-413.87976849637926,107.0
1731821827.8265164,-887.3043541372754,-365.7322964668274,-979.7247618422844,-384.6262710429728,107.0
1731821827.856388,-891.650117885787,-425.26028406154364,-987.0998445549048,-425.89232715405524,108.0
1731821827.856388,-893.4564895643853,-466.65349677111953,-986.1424301662482,-448.63465878460556,108.0
1731821827.8570442,-896.8635384240188,-382.42720986902714,-986.2546271649189,-391.49646726157516,109.0
1731821827.8570442,-893.8117800601758,-409.35448954999447,-986.3556044637226,-414.65392778720707,109.0
1731821827.857838,-897.9742887108587,-470.0792451305315,-992.0290326965041,-455.12338520772755,110.0
1731821827.857838,-897.2337885196321,-422.11502819880843,-988.3190519404598,-420.648987416178,110.0
1731821827.8701909,-902.3649312588386,-371.2149898018688,-985.3383516757749,-390.8569443691522,111.0
1731821827.8701909,-902.8324187532999,-457.71139597706497,-983.8498714934103,-448.701976983808,111.0
1731821827.8858812,-905.098798126448,-439.0679946979508,-986.3294251640327,-437.47853721678257,112.0
1731821827.8858812,-893.460229464341,-376.64906443748623,-992.646116189193,-402.6750282291323,112.0
1731821827.8866365,-875.6957046748139,-421.1650936100632,-990.824784910772,-418.8725349372253,113.0
1731821827.8866365,-872.2512568156235,-460.8042932404205,-987.9637614446692,-439.0268557984382,113.0
1731821827.9001179,-902.5332267568447,-389.7349743824452,-1001.0795905892737,-403.1574753234163,114.0
1731821827.9001179,-891.915650782641,-413.9358669957146,-987.2830996527337,-422.07388929929584,114.0
1731821827.915604,-883.437297583092,-469.94834863208234,-980.9140500281937,-447.08634020294994,115.0
1731821827.915604,-886.5189751465805,-409.87433564383537,-980.4914413332008,-409.24603245127946,115.0
1731821827.9163456,-886.863045942504,-378.37689821701497,-989.2764663291164,-392.812912045978,116.0
1731821827.9163456,-892.9590828702785,-468.97597464360297,-985.2972127762623,-462.1768365241587,116.0
1731821827.9299788,-895.1095253448002,-439.63271959125996,-990.4283555154689,-433.0654552690685,117.0
1731821827.9299788,-891.2985672899522,-377.3708651289344,-992.9901869851165,-395.4532814146951,117.0
1731821827.9456575,-889.4398370119743,-443.57083424460143,-988.4387287390418,-437.89366611186415,118.0
1731821827.9456575,-887.4389905356802,-479.83290421497077,-991.2511335057206,-459.34199235774577,118.0
1731821827.9463365,-894.3615453536622,-391.4815076617524,-987.4177360511385,-401.6278562415391,119.0
1731821827.9463365,-899.8292790888809,-418.4985449416563,-996.8759430390783,-416.0863094702363,119.0
1731821827.9599736,-891.7510951845907,-471.7846395103261,-986.6660161600448,-453.851819222793,120.0
1731821827.9599736,-888.7591752200387,-418.3115499438718,-984.5567125850357,-413.14300820510834,120.0
1731821827.9757571,-893.8790982593782,-390.2660401761532,-993.5511719784699,-405.6669481936842,121.0
1731821827.9757571,-891.1414914918132,-465.8942970801145,-993.9438614738174,-447.4416306987405,121.0
1731821827.9764671,-891.0891328924336,-426.33737524878234,-985.0204601795413,-422.7620308911428,122.0
1731821827.9764671,-899.3767511942424,-378.3245396176353,-991.0005602086894,-400.1244164593518,122.0
1731821827.9900005,-891.047993992921,-435.6871251380071,-989.2390673295595,-443.67555144336075,123.0
1731821827.9900005,-883.605593081098,-458.45563606824726,-984.7848464823328,-446.74600930698216,123.0
1731821828.0056248,-895.7864472367801,-390.4118962744251,-989.3849234278314,-398.38910287991166,124.0
1731821828.0056248,-895.3152198423631,-408.527971659787,-992.4479014915414,-419.84490892570466,124.0
1731821828.0062983,-893.9314568587579,-477.0055398484692,-993.5212527788244,-457.9320500744507,125.0
1731821828.0062983,-890.4346504001878,-417.21201935689896,-991.7223609001376,-416.80437026172876,125.0
1731821828.0200171,-891.1115722921677,-389.5965980840847,-986.9689480564557,-400.32637105695903,126.0
1731821828.0200171,-892.0577669809572,-461.365278233774,-989.063292031642,-451.9968288447708,126.0
1731821828.0358524,-889.9110644063912,-437.6094337152317,-988.5135267381556,-432.36983387731016,127.0
1731821828.0358524,-900.1060316856019,-382.8460786640644,-993.7718260758556,-396.27979930490255,127.0
1731821828.03652,-896.5942656272091,-441.92901816405356,-995.0882708602585,-436.15835253242403,128.0
1731821828.03652,-898.5876323035918,-484.1150896642357,-995.5146194552071,-464.16272340063006,128.0
1731821828.0499923,-888.9947889172472,-386.23816792387515,-988.9922339324839,-402.53665193077177,129.0
1731821828.0499923,-890.5692867985927,-418.1170751461759,-985.4056698749773,-419.91596702486277,129.0
1731821828.0658271,-889.8512260071002,-474.6381831765175,-978.3746579582803,-461.8776445277035,130.0
1731821828.0658271,-896.3997908295132,-422.96024558879435,-989.7439538235776,-424.03733677603304,130.0
1731821828.066552,-892.495335275773,-383.0779524613172,-993.1547425831668,-401.3473637448624,131.0
1731821828.066552,-888.0635538282804,-464.17020320054144,-986.6061777607538,-454.1360516194254,131.0
1731821828.080151,-895.0459470455535,-434.4679177524522,-989.9159892215393,-431.51713668741286,132.0
1731821828.080151,-899.0625995979644,-376.4845088394359,-988.1844155420549,-395.2326273173094,132.0
1731821828.0957093,-886.2758816494606,-415.62256187573075,-982.0584594146349,-424.785316767171,133.0
1731821828.0957093,-891.1714106914587,-469.4434621380642,-991.6288634012453,-455.16452410724014,133.0
1731821828.0966103,-898.5390136041678,-396.42939530313015,-992.6722954888828,-407.7538123689592,134.0
1731821828.0966103,-888.587139822077,-411.7929043211043,-980.9252697280608,-414.0144048947841,134.0
1731821828.110057,-892.8992444709875,-470.4083563266322,-985.4617683743127,-447.3556129997596,135.0
1731821828.110057,-889.0434076166712,-417.35787545517087,-988.0684786434285,-416.25086506828666,135.0
1731821828.1259136,-885.4942425587215,-378.56389321479946,-982.9335960042663,-399.29041876923293,136.0
1731821828.1259136,-906.3329651118256,-474.6980215758085,-993.7232073764317,-465.9952743789181,136.0
1731821828.1265907,-892.3158200778998,-432.6877253735438,-990.9706410090439,-425.798829655163,137.0
1731821828.1265907,-895.0197677458636,-378.3993376167491,-998.8506102156825,-399.8102648630738,137.0
1731821828.1417537,-892.3270397777669,-432.8373213717714,-987.6458699484356,-426.3859939482063,138.0
1731821828.1417537,-895.9397831349634,-465.92421627976,-989.4672012268566,-452.6662709368393,138.0
1731821828.156101,-890.6814837972634,-384.19618254806846,-989.0707718315534,-399.76538606360555,139.0
1731821828.156101,-901.8076861654408,-415.4916653772816,-999.0600446132012,-425.1331274630502,139.0
1731821828.1567695,-899.2869935953058,-479.39159602019936,-995.6417760537006,-458.4818153679371,140.0
1731821828.1567695,-906.0823918147944,-420.7948435144499,-989.37744362792,-420.54427021741867,140.0
1731821828.1704586,-905.5064472216181,-382.0233006738126,-991.6550427009352,-397.420468791388,141.0
1731821828.1704586,-893.460229464341,-463.7662940053269,-988.5958045371808,-460.37794464547187,141.0
1731821828.186069,-888.8339732191525,-428.15496662724763,-982.5446464088745,-426.37103434838355,142.0
1731821828.186069,-900.334165582899,-369.3899186234921,-1000.690640993882,-393.1831621415913,142.0
1731821828.1865597,-894.6195984506048,-436.2368904314935,-992.4516413914971,-435.5412690397352,143.0
1731821828.1865597,-894.4026842531748,-463.79621320497245,-983.804992693942,-451.1067326553166,143.0
1731821828.2001336,-888.3253468251787,-387.1394838131964,-982.3165125115775,-401.4109420441091,144.0
1731821828.2001336,-895.0122879459523,-409.8556361440569,-988.1432766425423,-419.2465249327943,144.0
1731821828.2158966,-896.317513030488,-467.04992616642267,-988.3788903397508,-455.4412767039612,145.0
1731821828.2158966,-895.3600986418314,-407.4807996721938,-987.61595074879,-410.6858939342201,145.0
1731821828.2165687,-884.0057623763569,-377.01931453309953,-975.1172050968744,-393.4823541380465,146.0
1731821828.2165687,-891.0255545931868,-467.35659796278924,-981.8340654172935,-457.64407777786255,146.0
1731821828.230112,-894.9000909472816,-433.3945664651692,-989.6878553242423,-432.0145433815196,147.0
1731821828.230112,-897.6002987152897,-375.71782934851944,-988.3190519404598,-395.9993068082258,147.0
1731821828.2458687,-900.4014837821014,-441.96267726365477,-986.5874782609753,-437.9871636107564,148.0
1731821828.2458687,-907.896243293304,-478.3406841326505,-992.754573287908,-459.2484948588535,148.0
1731821828.2466288,-913.1021840316243,-389.2487873882055,-994.3328110692091,-401.3286642450839,149.0
1731821828.2466288,-914.010979720857,-418.610741940327,-1001.6779745821841,-432.4932505758479,149.0
1731821828.2602232,-903.2475476483814,-477.8544971384108,-989.0932112312876,-464.71996849402785,150.0
1731821828.2602232,-899.0252005984075,-408.91692125517875,-982.8026995058171,-425.0807688636705,150.0
1731821828.275794,-904.1488635377027,-385.56498593185097,-990.4096560156904,-399.3689566683024,151.0
1731821828.275794,-899.2795137953945,-468.2953128516674,-986.5126802618615,-460.23208854719996,151.0
1731821828.2764971,-895.1992829437368,-434.0677484571934,-989.5232997261919,-440.33208088297397,152.0
1731821828.2764971,-903.4420224460773,-384.01292745023966,-988.3302716403268,-412.821376808919,152.0
1731821828.2909925,-889.7427689083852,-427.9791913293302,-983.3861238989048,-436.85397392418236,153.0
1731821828.2909925,-896.6578439264558,-460.64721744228154,-977.473342068959,-441.3194144712761,153.0
1731821828.3056889,-904.5265934332274,-393.99098053202033,-992.4217221918516,-392.98494744393975,154.0
1731821828.3056889,-908.9471551808529,-425.9484256533906,-997.4032689328305,-405.21068039909005,154.0
1731821828.3063707,-915.1217300076969,-493.59199615195394,-1000.4886863962747,-469.09939134214073,155.0
1731821828.3063707,-899.3954506940208,-419.0894491346553,-990.9482016093098,-412.0920963175595,155.0
1731821828.3199656,-894.7280555493198,-376.1703572431579,-979.620044643525,-396.2536200052127,156.0
1731821828.3199656,-885.6662779566832,-464.211342100054,-974.7058161017485,-450.2428157655522,156.0
1731821828.3359773,-881.7954815025441,-426.2102186502889,-974.9339499990456,-420.06930292304605,157.0
1731821828.3359773,-897.6227381150238,-378.0403072210029,-983.8685709931888,-396.75850649923086,157.0
1731821828.3363206,-886.8967050421052,-438.56684810388833,-978.4120569578372,-441.1735583730042,158.0
1731821828.3363206,-889.4360971120186,-473.112303994596,-979.5340269445442,-467.4725348614156,158.0
1731821828.350011,-891.0442540929653,-389.49936068523675,-978.3447387586348,-406.1493952879682,159.0
1731821828.350011,-899.8666780884378,-426.56176924612373,-983.913449792657,-434.6923117497936,159.0
1731821828.36595,-892.2148427790962,-478.2696260334924,-983.3898637988605,-464.3609380982816,160.0
1731821828.36595,-887.9326573298313,-422.96024558879435,-984.3584978873841,-427.25365073792636,160.0
1731821828.36665,-895.5022148401476,-387.49851420894265,-985.1027379785664,-404.4589605079964,161.0
1731821828.36665,-911.1798754543997,-481.68789459299296,-990.3198984167539,-472.3680639034137,161.0
1731821828.3801403,-902.0096407630481,-461.72056872956455,-991.946754897479,-454.8129735114053,162.0
1731821828.3801403,-899.6123648914509,-395.32238491624594,-983.2253082008101,-411.2693183273077,162.0
1731821828.3955052,-886.272141749505,-454.86533211078495,-979.5228072446771,-442.4376445580274,163.0
1731821828.3955052,-881.9787366003729,-476.27625935710967,-975.3528187940829,-448.41026478726417,163.0
1731821828.410561,-886.6648312448524,-401.35858344472945,-981.3366587231867,-408.80472425650805,164.0
1731821828.410561,-886.9041848420165,-431.00477039348334,-981.2319415244274,-429.81922210752964,164.0
1731821828.411347,-887.6297254334204,-484.4928195597604,-980.6634767311625,-462.49472802039236,165.0
1731821828.411347,-899.4814683930017,-432.347394477576,-987.8590442459099,-428.73465112037957,165.0
1731821828.425703,-889.020968216937,-384.09146534930915,-982.4698484097607,-399.20066117029637,166.0
1731821828.425703,-889.8923649066128,-472.94400849658996,-984.98680107994,-461.71308892965317,166.0
1731821828.4263432,-880.7969282143749,-427.8669943306595,-975.966162386816,-430.95989159401506,167.0
1731821828.4263432,-885.8794522541575,-376.3685719408095,-976.4710488808341,-390.5614922726527,167.0
1731821828.4399252,-890.5431074989028,-438.884739600122,-983.2963662999682,-437.45235791709274,168.0
1731821828.4399252,-886.0739270518534,-456.79886038787663,-984.9194828807376,-438.07692120969296,168.0
1731821828.4561377,-893.5462471633218,-390.8457246692851,-986.5164201618172,-409.6312421467155,169.0
1731821828.4561377,-896.1118185329251,-417.29429715592414,-983.3599445992149,-423.2444779854268,169.0
1731821828.456319,-894.0212144576944,-478.76703272759914,-983.4085632986389,-456.35381229314953,170.0
1731821828.456319,-904.56773233274,-431.10574769228697,-996.6814682413824,-425.84370845463127,170.0
1731821828.4699168,-892.4654160761274,-389.31610558740795,-994.4861469673924,-400.7078408524394,171.0
1731821828.4699168,-888.8863318185322,-469.09939134214073,-991.1314567071386,-451.93325054552406,171.0
1731821828.48567,-884.7425226676278,-429.1609997153282,-995.4660007557832,-428.4167596241459,172.0
1731821828.48567,-888.2318493262865,-372.04524759203196,-992.2571665938012,-399.25301976967603,172.0
1731821828.486349,-893.7444618609734,-448.2232697894797,-1000.0174590018578,-445.5043625216931,173.0
1731821828.486349,-883.871125977952,-472.02399310749024,-995.0620915605687,-452.53537443839014,173.0
1731821828.4998918,-881.2718955087475,-384.37943764589727,-984.8372050817125,-399.7018077643588,174.0
1731821828.4998918,-879.4056854308583,-411.3889951258898,-986.3481246638112,-419.3437623316422,174.0
1731821828.5156536,-879.3383672316559,-465.9541354794055,-986.9652081565,-457.30374688189477,175.0
1731821828.5156536,-881.8067012024112,-411.65826792269945,-985.8394982698373,-416.0863094702363,175.0
1731821828.5163364,-875.8228612733074,-378.0365673210472,-988.3153120405041,-392.3416846515611,176.0
1731821828.5163364,-892.7870474723168,-467.9587218556553,-995.7053543529473,-456.7427618885413,176.0
1731821828.5299263,-889.1331652156077,-437.6617923146114,-976.7066625780426,-432.770003172569,177.0
1731821828.5299263,-898.6512106028385,-380.75547458883375,-973.5875860149972,-400.76393935177475,177.0
1731821828.545385,-895.0122879459523,-438.5144895045087,-982.0061008152552,-445.1827311255038,178.0
1731821828.545385,-895.498474940192,-461.83650562819093,-979.6873628427275,-454.3193067172542,178.0
1731821828.5608664,-892.3046003780328,-384.42431644536555,-979.8930573402904,-404.4589605079964,179.0
1731821828.5608664,-901.4336961698718,-428.62619402166456,-985.0129803796299,-433.7161978613585,179.0
1731821828.5613346,-888.7741348198615,-481.35130359698087,-986.4977206620388,-463.5157207082957,180.0
1731821828.5613346,-901.4299562699161,-425.4584987591952,-993.4015759802423,-427.5678023342043,180.0
1731821828.575662,-898.1799832084216,-392.09859115444124,-992.9677475853823,-408.72618635743856,181.0
1731821828.575662,-895.1768435440026,-470.35225782729685,-984.5716721848585,-455.60957220196724,181.0
1731821828.5763228,-904.1526034376584,-437.6804918143898,-987.39903655136,-432.92333907075226,182.0
1731821828.5763228,-891.5827996865846,-366.0314884632826,-976.9871550747193,-381.222962083295,182.0
1731821828.5899756,-888.4824226233177,-428.2073252266273,-977.3237460707314,-423.6857861801982,183.0
1731821828.5899756,-895.2179824435152,-461.8215460283682,-980.0800523380749,-448.75059568323195,183.0
1731821828.605587,-886.3656392483972,-381.82508597616106,-983.5506794969551,-402.787225227803,184.0
1731821828.605587,-888.4637231235392,-416.572496464476,-982.3913105106913,-425.7165518561378,184.0
1731821828.6062877,-898.4941348046996,-484.7172135571018,-983.9919876917265,-469.38362373877317,185.0
1731821828.6062877,-892.8880247711204,-433.08041486889124,-979.2722339476459,-426.80860264319927,185.0
1731821828.619942,-882.5846003931947,-386.20076892431825,-980.1174513376318,-406.6767211817205,186.0
1731821828.619942,-891.0367742930539,-488.2775983149186,-982.9934344035573,-475.83869106229395,186.0
1731821828.6356132,-881.5112491059117,-435.77688273694366,-980.9177899281494,-431.88364688307047,187.0
1731821828.6356132,-890.6066857981496,-384.34577854629606,-987.2045617536642,-399.2305803699419,187.0
1731821828.6363149,-895.2030228436925,-446.4767365101725,-982.9597753039561,-442.1833313610405,188.0
1731821828.6363149,-899.6161047914065,-468.8525579450652,-993.0724647841416,-446.79088810645044,188.0
1731821828.649938,-904.1675630374812,-394.24903362896293,-995.8624301510863,-403.80073811579496,189.0
1731821828.649938,-899.5001678927802,-417.8702417491004,-994.5347656668164,-426.5393298463896,189.0
1731821828.6656103,-899.477728493046,-476.25008005741984,-990.8135652109049,-469.0470327427611,190.0
1731821828.6656103,-901.4374360698275,-411.0823233295232,-991.1950350063853,-416.22094586864114,190.0
1731821828.6662931,-906.3067858121358,-385.9688951270655,-989.2241077297367,-409.40310824941844,191.0
1731821828.6662931,-901.0260470747016,-481.5719576943666,-993.4015759802423,-471.6350435120985,191.0
1731821828.6798997,-899.7283017900772,-436.5398223279044,-993.8578437748365,-435.36923364177346,192.0
1731821828.6798997,-895.2179824435152,-372.7333891838789,-986.206008465495,-400.2291336581111,192.0
1731821828.6956487,-903.5803987444378,-446.3570597115904,-993.1622223830782,-455.7068096008152,193.0
1731821828.6956487,-904.7958662300371,-473.0412458954379,-995.4996598553844,-461.82902582827955,193.0
1731821828.6963336,-909.3323648762889,-396.4480948029086,-1001.1469087884761,-405.5697107948363,194.0
1731821828.6963336,-901.1270243735053,-420.7911036144942,-1003.1888941642828,-424.03359687607735,194.0
1731821828.709938,-894.316666554194,-482.53685188293457,-994.9087556623854,-468.1045779539272,195.0
1731821828.709938,-897.6975361141376,-421.22493200935423,-989.583138125483,-423.48383158259094,195.0
1731821828.7256143,-903.3896638466977,-386.87021101638675,-991.5989442015998,-398.2731659812853,196.0
1731821828.7256143,-909.5455391737632,-479.12980302330106,-994.2318337704055,-458.53791386727244,196.0
1731821828.7263098,-903.3223456474952,-432.25389697868377,-993.8952427743934,-422.0103110000491,197.0
1731821828.7263098,-894.1932498556562,-367.4339509466663,-983.6778360954486,-396.2162210056558,197.0
1731821828.7399077,-893.1198985683732,-438.81368150096387,-984.9344424805604,-440.8668865766376,198.0
1731821828.7399077,-897.33102591848,-461.8888642275706,-987.664569448214,-446.1663248138502,198.0
1731821828.755984,-894.9038308472373,-376.01702134497464,-980.0015144390054,-392.86901054531336,199.0
1731821828.755984,-896.7850005249493,-415.06531678233296,-985.0952581786551,-416.69965306296945,199.0
1731821828.7562752,-895.726608837489,-473.46011469047517,-991.1426764070056,-461.30917973443866,200.0
1731821828.7562752,-890.9470166941173,-405.21816019900143,-988.255473641213,-411.28053802717477,200.0
1731821828.7705536,-894.9973283461295,-392.34542455151677,-993.8017452755012,-403.1817846731283,0.0
1731821828.7713053,-899.2495945957489,-477.0504186479375,-990.0207064202987,-464.6171212452464,101.0
1731821828.7713053,-900.4276630817913,-434.60255415085703,-978.5803524558432,-432.3455245275982,101.0
1731821828.7849329,-904.7696869303472,-382.7750205649063,-984.6053312844597,-401.5848473920487,102.0
1731821828.7849329,-898.7970667011105,-448.0175752919167,-980.9140500281937,-448.0157053419389,102.0
1731821828.800558,-903.2699870481156,-471.1600762177259,-991.8121184990741,-455.91811394831166,103.0
1731821828.800558,-909.0593521795236,-396.2162210056558,-1010.2610449804924,-415.90118442242965,103.0
1731821828.8012865,-904.3545580352657,-418.1619539456442,-987.7692866469733,-423.79611322889104,104.0
1731821828.8012865,-887.3193137370981,-471.31715201586485,-964.2228765259497,-457.0774829345755,104.0
1731821828.815048,-909.983107468579,-418.81643643788993,-979.9902947391383,-426.4514421974309,105.0
1731821828.815048,-915.0656315083615,-403.72968001663685,-982.4885479095392,-403.93350456422195,105.0
1731821828.8306527,-897.11411172105,-477.2561131455004,-972.6413913262077,-451.0861632055603,106.0
1731821828.8306527,-892.1475245798938,-414.69506668671966,-963.73668953171,-416.86233871104196,106.0
1731821828.8314283,-903.9132498404942,-377.0604534326121,-975.158343996387,-403.6642317674123,107.0
1731821828.8314283,-907.2604603008367,-440.2011843845248,-977.6416375669651,-436.83340447442606,107.0
1731821828.845023,-905.6074245204218,-467.24066106416285,-973.1836768197827,-453.128148581367,108.0
1731821828.845023,-912.4290020396002,-398.3105649808422,-977.1816298724152,-417.8833313989453,108.0
1731821828.8606482,-903.879590740893,-420.70134601555765,-974.8180131004192,-422.4123502452858,109.0
1731821828.8606482,-901.5309335687198,-477.2561131455004,-981.0711258263327,-461.40828708326444,109.0
1731821828.86134,-898.4567358051427,-411.73680582176894,-975.3079399946146,-415.60199242597446,110.0
1731821828.86134,-904.56773233274,-395.9656477086246,-976.3925109817646,-411.34598627639934,110.0
1731821828.875011,-906.8041925062425,-473.6284101884812,-972.6189519264735,-461.5803224812262,111.0
1731821828.875011,-909.983107468579,-434.7708496488631,-974.2383286072873,-428.029679978732,111.0
1731821828.89053,-899.0513798980974,-378.13006481993943,-979.8593982406892,-398.64154612692073,112.0
1731821828.89053,-892.0764664807357,-430.7205379968509,-979.500367844943,-443.8868557908572,112.0
1731821828.905602,-897.173950120341,-459.15499735996127,-986.2546271649189,-453.02343138260767,113.0
1731821828.905602,-899.9152967878617,-380.27302749454975,-983.0121339033358,-409.82384699443355,113.0
1731821828.906266,-903.011933951173,-413.3374830028042,-977.1741500725038,-424.4505957211368,114.0
1731821828.906266,-902.3686711587943,-475.4123424673453,-986.6136575606652,-460.8996606892906,114.0
1731821828.920574,-902.3911105585285,-416.0489104706794,-983.1579900016077,-426.956328691449,115.0
1731821828.920574,-900.5286403805949,-389.72001478262246,-982.0771589144133,-407.89405861729756,115.0
1731821828.9213116,-905.2745734243654,-476.9681408489123,-987.3765971516259,-466.1579600269906,116.0
1731821828.9213116,-906.97996780416,-431.214204791002,-980.7083555306308,-428.20919517660514,116.0
1731821828.9349363,-906.5797985089011,-371.2785681011155,-984.5230534854345,-407.321853924077,117.0
1731821828.9349363,-900.4501024815254,-448.2045702897012,-986.3481246638112,-455.4244471541606,117.0
1731821828.950526,-906.497520709876,-466.1822693767026,-978.053026562091,-454.55305046448484,118.0
1731821828.950526,-911.4267088514753,-396.1937816059217,-986.688455559779,-411.1402917788364,118.0
1731821828.965674,-901.9049235642888,-409.24977235123515,-983.2851466001011,-424.5179139203392,119.0
1731821828.965674,-892.1624841797166,-471.69488191138953,-975.423876893241,-452.84017628477886,119.0
1731821828.9663985,-896.257674631197,-408.3073175624013,-981.8976437165402,-413.3991913520731,120.0
1731821828.9663985,-899.477728493046,-396.90436259750277,-981.7630073181354,-409.44985699886456,120.0
1731821828.9806004,-890.240175602492,-466.2869865754619,-975.3378591942601,-476.71569760190323,121.0
1731821828.9806004,-901.0784056740813,-435.07752144522965,-977.944569463376,-431.46664803801104,121.0
1731821828.9813988,-896.1716569322161,-375.4036777522415,-973.445469816681,-397.0184295461513,122.0
1731821828.9813988,-897.6601371145807,-442.34414705913514,-987.7318876474164,-436.95308127300814,122.0
1731821829.0117369,-898.127624609042,-458.9156437627971,-985.7273012711667,-446.6805610577576,123.0
1731821829.0117369,-898.1612837086432,-382.4122502692044,-982.9896945036016,-390.36514752497897,123.0
1731821829.0124087,-899.574965891894,-415.3158900793642,-983.6179976961575,-406.4990759338252,124.0
1731821829.0124087,-904.0254468391649,-487.76897192094475,-989.1455698306672,-464.10849485127255,124.0
1731821829.025742,-900.5735191800632,-408.5728504592553,-986.8193520582281,-413.75074194790795,125.0
1731821829.025742,-894.4213837529533,-382.2888335706666,-986.1012912667356,-405.8782525411807,125.0
1731821829.026466,-897.3534653182141,-478.68475492857397,-979.5676860441454,-468.6786525971256,126.0
1731821829.026466,-898.5951121035032,-435.6572059383616,-977.6079784673639,-435.1504494943656,126.0
1731821829.0406144,-898.0715261097066,-381.72036877740175,-978.8758045523427,-412.45299666328356,127.0
1731821829.0406144,-893.3368127658032,-445.3136276239529,-974.6048388029449,-453.8948280722834,127.0
1731821829.041459,-894.1745503558777,-466.4365825736895,-976.5047079804353,-454.02572457073256,128.0
1731821829.041459,-898.610071703326,-377.6550975255668,-979.1974359485321,-392.73998399684206,128.0
1731821829.0713177,-898.9541424992494,-421.33712900802493,-981.7480477183126,-421.72046875348315,129.0
1731821829.0713177,-898.344538806472,-479.0437853243202,-978.0231073624454,-469.00776379322633,129.0
1731821829.0720072,-896.5867858272977,-414.6053090877831,-979.2049157484435,-423.90831022756174,130.0
1731821829.0720072,-893.9576361584477,-387.8986835042015,-979.2123955483548,-420.0001147738658,130.0
1731821829.072832,-891.433203688357,-479.95258101355284,-980.1847695368342,-465.84754833066836,131.0
1731821829.072832,-887.9588366295211,-433.25993006676435,-980.6485171313398,-426.8852705922909,131.0
1731821829.084957,-901.2915799715556,-382.3337123701349,-984.0480861910619,-389.30301593756303,132.0
1731821829.084957,-897.7947735129856,-455.4001378044486,-968.2245694785379,-439.42889504367486,132.0
1731821829.1004713,-898.9167434996925,-477.0840777475387,-967.282114689704,-452.21935289213434,133.0
1731821829.1004713,-901.9049235642888,-398.20210788212717,-969.9262239583768,-403.5445549688302,133.0
1731821829.1157265,-896.366131729912,-425.62305435724556,-975.3341192943044,-431.2684333403595,134.0
1731821829.1157265,-889.9185442063026,-476.5866710534319,-969.4362970641814,-460.73884499119595,134.0
1731821829.116416,-898.6474707028829,-403.05649802461267,-972.6189519264735,-411.60777927329764,135.0
1731821829.116416,-898.079005909618,-390.292219475843,-976.557066579815,-402.18697128491476,135.0
1731821829.131092,-913.7304872241803,-473.21328129339963,-981.0449465266429,-460.8660015896894,136.0
1731821829.131092,-901.4636153695174,-423.48383158259094,-981.7854467178695,-430.8121655457653,136.0
1731821829.131322,-901.624431067612,-376.04320064466447,-982.0472397147678,-393.37202708935365,137.0
1731821829.131322,-905.9140963167883,-449.38637867569923,-986.7445540591143,-447.9334275429137,137.0
1731821829.1449268,-891.867032083217,-456.8923578867689,-986.7295944592915,-442.7162671047263,138.0
1731821829.1449268,-902.2676938599907,-385.0301802381873,-990.8995829098858,-397.2016846439801,138.0
1731821829.1605985,-899.537566892337,-419.4858785299584,-986.7370742592029,-435.02329289587215,139.0
1731821829.1605985,-893.5350274634548,-472.4802609020844,-983.6890557953157,-459.3550820075907,139.0
1731821829.1613088,-897.5329805160873,-409.1487950524315,-987.4663547505625,-414.5398608385585,140.0
1731821829.1613088,-896.6354045267217,-386.71313521824777,-985.1251773783006,-397.6803918383084,140.0
1731821829.1749337,-899.3655314943753,-471.58268491271883,-991.2286941059865,-453.3001839793287,141.0
1731821829.1749337,-904.3246388356201,-431.62933368608356,-994.8489172630943,-434.6006842008792,141.0
1731821829.1906157,-899.7395214899443,-379.90651729889214,-989.1193905309774,-405.3247473477386,142.0
1731821829.1906157,-897.0617531216703,-437.6842317143455,-986.1312104663812,-438.4490412552841,142.0
1731821829.1913412,-899.7582209897228,-457.90961067471653,-993.296858781483,-445.1210227762349,143.0
1731821829.1913412,-895.8275861362927,-382.1354976724833,-987.930102345068,-404.82734065363184,143.0
1731821829.2049649,-889.5819532102905,-403.80073811579496,-979.234834948089,-431.64242333592847,144.0
1731821829.2049649,-901.4112567701377,-477.5216460423544,-990.3797368160449,-474.0678484332748,144.0
1731821829.2205615,-890.468309499789,-399.7915653632954,-982.1743963132612,-406.85810632957146,145.0
1731821829.2205615,-876.3539270670153,-372.26964158937335,-973.3444925178774,-394.127486880403,145.0
1731821829.221315,-886.283361449372,-474.84013777412474,-979.403130446095,-453.51335827680305,146.0
1731821829.221315,-888.6731575210579,-425.7576907556504,-977.7239153659903,-430.2549204523675,146.0
1731821829.235,-885.1314722630195,-377.363385329023,-974.7020762017928,-386.2362979738973,147.0
1731821829.235,-888.9536500177346,-441.1062401738018,-979.1338576492853,-444.88166917907074,147.0
1731821829.250612,-889.9222841062583,-453.56758682616055,-975.6594905904494,-453.5731966760941,148.0
1731821829.250612,-886.608732745517,-378.5863326145336,-974.301906906534,-391.96956460596994,148.0
1731821829.2513347,-880.5800140169449,-415.4243471780792,-988.5359661378898,-419.46530908020213,149.0
1731821829.2513347,-886.5227150465362,-478.05645173601806,-986.5500792614184,-475.52640941599384,149.0
1731821829.2650151,-886.608732745517,-412.99341220688075,-981.4376360219903,-412.01542836846784,150.0
1731821829.2650151,-896.4184903292917,-401.5306188426912,-990.0394059200771,-406.7272098311223,150.0
1731821829.2806618,-888.4338039238937,-478.5538584301248,-967.3643924887292,-457.70578612713143,151.0
1731821829.2806618,-889.6380517096259,-431.2366441907361,-971.9008911349811,-423.5455399318598,151.0
1731821829.2813034,-894.6195984506048,-361.0162826227024,-968.9538499698974,-377.6345280758105,152.0
1731821829.2813034,-909.6577361724339,-441.64104586746544,-984.878343981225,-443.88311589090154,152.0
1731821829.294907,-896.740121725481,-443.37635944690555,-966.3359200009145,-437.64870266476646,153.0
1731821829.294907,-894.2605680548586,-370.1865173140541,-962.0200754520483,-419.4503494803794,153.0
1731821829.3105595,-892.3569589774124,-402.8882025266066,-959.4320646827109,-422.1916961479001,154.0
1731821829.3105595,-890.5131882992573,-458.2200223710388,-961.5675475574099,-439.4475945434533,154.0
1731821829.3113089,-892.7010297733359,-401.05939144827425,-964.6679246206768,-390.1669328273274,155.0
1731821829.3113089,-895.124484944623,-391.8816769570112,-967.3980515883304,-419.46156918024644,155.0
1731821829.3249147,-909.3061855765991,-490.62625548709184,-981.4338961220346,-479.4009457700886,156.0
1731821829.3249147,-924.6285556950606,-447.1835776017979,-987.9039230453782,-452.4923655888997,156.0
1731821829.3406098,-926.8949350682087,-392.86901054531336,-991.2698330054991,-393.7160978852771,157.0
1731821829.3406098,-904.9828612278216,-443.78400854207575,-975.9699022867717,-439.87020323844627,157.0
1731821829.3413582,-908.0869781910442,-449.63695197273046,-987.8777437456883,-435.05321209551767,158.0
1731821829.3413582,-916.1240231958218,-391.8629774572328,-987.6608295482583,-397.6542125386186,158.0
1731821829.354904,-914.3924495163374,-423.711965479888,-985.1476167780347,-442.2712190099992,159.0
1731821829.354904,-914.2540732179768,-483.6812612693757,-983.7601138944738,-476.2818692070432,159.0
1731821829.370628,-909.3660239758901,-401.2613460458815,-982.5371666089632,-415.9498031218536,160.0
1731821829.370628,-913.6295099253766,-398.6733352765441,-983.5357198971324,-414.5174214388244,160.0
1731821829.371385,-915.3536038049497,-480.09469721186906,-989.8337114225142,-472.55318895122036,161.0
1731821829.371385,-917.0515183848329,-439.62897969130427,-994.6507025654428,-441.68405471695587,161.0
1731821829.3849213,-929.2847311398946,-393.84138453379273,-998.6262162183411,-407.11241952655837,162.0
1731821829.3849213,-910.525392962154,-454.19962991867214,-978.8832843522541,-459.3550820075907,162.0
1731821829.4006248,-908.0570589913987,-461.4438161328435,-991.9542346973903,-447.4248011489399,163.0
1731821829.4006248,-915.2002679067664,-389.24504748824984,-989.8561508222483,-400.5488951043226,163.0
1731821829.4013815,-910.0205064681359,-423.84660187829286,-987.4588749506511,-429.3760439627804,164.0
1731821829.4013815,-904.2199216368608,-480.90999540220946,-978.5653928560205,-461.340968884062,164.0
1731821829.4149384,-905.2521340246312,-408.8346434561536,-978.004407862667,-405.78101514233276,165.0
1731821829.4149384,-910.4805141626857,-401.47078044340014,-980.3867241344415,-416.9558362099342,165.0
1731821829.4308176,-904.459275234025,-479.21208082232624,-976.4186902814545,-467.9718115055002,166.0
1731821829.4308176,-899.5637461920269,-427.18259263876826,-969.4811758636497,-414.2818077416159,166.0
1731821829.4313488,-894.810333348345,-375.8113268474117,-974.6571974023245,-390.050995928701,167.0
1731821829.4313488,-891.6762971854769,-449.6556514725089,-972.9405833226629,-446.88251565536484,167.0
1731821829.444949,-889.1630844152533,-448.67579768411815,-959.660198580008,-430.6700493474491,168.0
1731821829.444949,-895.7527881371789,-379.7718809004873,-972.3982978290878,-391.0906881163828,168.0
1731821829.4608984,-897.4170436174609,-421.6550205042586,-971.4521031402983,-417.05681350873783,169.0
1731821829.4608984,-896.7363818255253,-470.53551292512566,-971.1192520442419,-458.1283948221244,169.0
1731821829.461354,-899.7844002894126,-404.46270040795207,-987.6309103486128,-422.90227713948116,170.0
1731821829.461354,-899.3056930950843,-395.0830313190818,-986.2134882654063,-413.71334294835106,170.0
1731821829.4749088,-902.914696552325,-471.0703186187893,-981.5722724203952,-461.81219627847895,171.0
1731821829.4749088,-897.8994907117449,-428.8244087193161,-976.8038999768905,-444.1897876872681,171.0
1731821829.4907255,-897.1776900202967,-382.561846267432,-978.7112489542924,-401.10988009767607,172.0
1731821829.4907255,-912.4252621396445,-458.76230786461383,-986.1985286655836,-458.494905017782,172.0
1731821829.4913511,-908.5320262857713,-460.8903109394014,-982.7914798059501,-458.00123822363093,173.0
1731821829.4913511,-909.5343194738962,-394.1480563301593,-982.1369973137043,-421.1108650607057,173.0
1731821829.5048738,-905.8879170170985,-421.2286719093099,-982.4249696102925,-429.5966980601661,174.0
1731821829.5048738,-907.6120108966716,-480.69682110473514,-980.0463932384737,-460.43591309478506,174.0
1731821829.5212183,-902.8249389533885,-409.31709055043757,-983.7601138944738,-405.1340124499984,175.0
1731821829.5212183,-902.4285095580854,-397.0053398963064,-984.541752985213,-409.30026100063697,175.0
1731821829.5213203,-898.1463241088204,-476.1902416581288,-981.2880400237627,-457.58610932854936,176.0
1731821829.5213203,-902.0021609631367,-429.4975907113403,-982.6044848081656,-424.858244816307,176.0
1731821829.534927,-892.4354968764819,-374.4013845641166,-971.6914567374624,-382.5001379181631,177.0
1731821829.534927,-910.4131959634833,-459.4728888561949,-990.7051081121899,-450.1998069160618,177.0
1731821829.5506127,-895.3488789419644,-448.20083038974553,-979.8593982406892,-441.007132824976,178.0
1731821829.5506127,-902.6753429551609,-382.86103826388717,-974.3355660061352,-396.7341971495189,178.0
1731821829.5513315,-903.3111259476282,-416.65851416345686,-976.7777206772007,-426.57111899601296,179.0
1731821829.5513315,-895.3937577414326,-473.72938748728484,-979.2423147480004,-456.85308893723413,179.0
1731821829.565018,-905.3381517236121,-404.1934276111424,-983.6179976961575,-409.7789681949653,180.0
1731821829.565018,-899.4702486931346,-391.2197146648541,-979.3358122468926,-402.56096128048375,180.0
1731821829.5809312,-901.7852467657067,-478.3444240326062,-979.8145194412209,-467.5267634107731,181.0
1731821829.5809312,-910.7722263592295,-433.0168365696445,-987.9450619448908,-434.09579770686105,181.0
1731821829.5813665,-910.0130266682245,-381.04718678537756,-985.9666548683308,-396.7641163491644,182.0
1731821829.5813665,-898.0565665098839,-449.5172751741484,-979.8182593411766,-442.6639085053466,182.0
1731821829.5950751,-898.4455161052756,-442.77797545399517,-991.3334113047458,-428.56074577244,183.0
1731821829.5950751,-905.7158816191368,-375.35131915286183,-999.2769588106312,-393.6599993859418,183.0
1731821829.610659,-896.9719955227338,-413.39358150213957,-970.3600523532368,-413.93773694569245,184.0
1731821829.610659,-897.0841925214045,-467.83156525716186,-971.2838076422922,-448.7113267336972,184.0
1731821829.6114528,-894.8963510473259,-398.445201379247,-964.9147580177523,-405.8857323410921,185.0
1731821829.6114528,-904.5228535332717,-392.1472098538652,-974.567439803388,-410.04824099177495,185.0
1731821829.624959,-894.5223610517569,-472.9215690968558,-968.4751427755691,-455.25615165615454,186.0
1731821829.624959,-894.170810455922,-424.59832176938653,-970.274034654256,-423.8073329287581,186.0
1731821829.6408272,-891.4481632881798,-371.6114191971719,-967.0838999920525,-382.63103441661224,187.0
1731821829.6408272,-895.6817300380208,-455.63949140161276,-975.1957429959439,-449.5677638235502,187.0
1731821829.6413157,-900.1209912854247,-452.2174829421565,-977.8323724647053,-439.1820616465993,188.0
1731821829.6413157,-901.8114260653965,-383.46316215675324,-981.875204316806,-398.8322810246609,188.0
1731821829.6549516,-901.9797215634026,-418.88375463709235,-983.7264547948726,-425.23597471183166,189.0
1731821829.6549516,-901.7179285665043,-476.6764286523685,-979.0029611508362,-460.48079189425334,189.0
1731821829.6708267,-905.966454916168,-411.9798993188888,-990.0543655198999,-415.26914132991806,190.0
1731821829.6708267,-897.0692329215817,-394.3275715280324,-973.4118107170798,-410.75508208340034,190.0
1731821829.6713264,-888.1495715272613,-465.5651858840138,-971.4820223399438,-456.2659246441908,191.0
1731821829.6713264,-893.4789289641194,-424.70303896814585,-972.3646387294866,-420.65085736615583,191.0
1731821829.6849678,-898.5838924036361,-369.7788682188839,-968.7144963727333,-396.40508595341817,192.0
1731821829.6849678,-906.1684095137753,-452.78594773542136,-978.0006679627113,-452.50358528876677,192.0
1731821829.700572,-900.2518877838738,-448.89271188154817,-967.0689403922297,-435.35614399192855,193.0
1731821829.700572,-897.6601371145807,-361.03872202243656,-970.5358276511542,-386.25873737363145,193.0
1731821829.701305,-901.0522263743915,-423.00512438826263,-977.5967587674968,-427.83520518103614,194.0
1731821829.701305,-910.3122186646797,-488.7600454092026,-989.8748503220268,-465.3239623368718,194.0
1731821829.714964,-914.0259393206798,-408.43073426093906,-984.2388210888021,-408.1334122144617,195.0
1731821829.714964,-912.5561586380936,-403.5202456191182,-984.8970434810035,-413.93399704573676,195.0
1731821829.7306716,-905.7345811189152,-483.31849097367376,-988.9361354331486,-466.1990989265032,196.0
1731821829.7306716,-900.6445772792213,-430.2418308025226,-985.0428995792754,-426.57111899601296,196.0
1731821829.7313197,-897.0767127214931,-368.294127936475,-977.8061931650154,-394.22846417920664,197.0
1731821829.7313197,-896.7476015253924,-448.5411612857133,-979.5564663442783,-442.4208150082268,197.0
1731821829.7449415,-895.7079093377106,-448.23822938930243,-971.250148542691,-447.43976074876264,198.0
1731821829.7449415,-897.8246927126311,-381.20052268356085,-975.4313566931523,-396.1021540570073,198.0
1731821829.7609155,-896.6503641265444,-417.24941835645586,-970.274034654256,-420.83037256402895,199.0
1731821829.7609155,-896.1940963319503,-472.6747356997803,-972.4955352279358,-457.66090732766315,199.0
1731821829.7613392,-891.0853929924779,-398.40032257977873,-971.9195906347595,-404.2813152601011,200.0
1731821829.7613392,-896.6578439264558,-390.9167827684432,-967.0614605923183,-417.3634853051044,200.0
1731821829.7756364,-903.1091713500209,-481.45415084576234,-975.2387518454343,-472.6167672504671,0.0
1731821829.7763767,-910.0279862680472,-430.6775291473605,-977.4153736196458,-434.50718670198694,101.0
1731821829.7763767,-905.21847492503,-383.7941433028318,-973.3650619676337,-407.2021771254949,101.0
1731821829.7900198,-903.3934037466533,-461.81219627847895,-982.8419684553519,-461.0455167875625,102.0
1731821829.7900198,-901.6992290667258,-460.5069711939432,-978.9300331017002,-458.0797761227004,102.0
1731821829.8056517,-898.8756046001799,-390.2118116267957,-980.8598214788362,-405.67629794357345,103.0
1731821829.8056517,-900.8091328772716,-438.43034175550565,-976.3981208316982,-432.02015323145315,103.0
1731821829.8063307,-898.7147889020853,-486.60025318479165,-977.4303332194686,-463.55124975787476,104.0
1731821829.8063307,-903.8347119414248,-413.4665095512755,-979.4797983951867,-413.8741586464457,104.0
1731821829.8199604,-904.1713029374368,-396.34150765417144,-979.9772050892934,-406.7720886305906,105.0
1731821829.8199604,-893.8790982593782,-468.52531669894233,-972.6769203757867,-454.9420000598766,105.0
1731821829.8356397,-897.4544426170178,-420.3254860700108,-980.8448618790135,-420.01881427364424,106.0
1731821829.8356397,-895.7415684373118,-365.43497442035004,-977.112441723235,-389.4713114355691,106.0
1731821829.8363292,-898.7970667011105,-451.03006470622495,-979.7303716922179,-448.2027003397234,107.0
1731821829.8363292,-890.4795291996561,-445.5997299705632,-972.8040769742802,-437.90675576170906,107.0
1731821829.8499627,-894.6756969499402,-377.013704683166,-973.3276629680768,-393.0167365935631,108.0
1731821829.8499627,-908.4310489869677,-426.0811921018176,-982.056589464657,-428.79261956969276,108.0
1731821829.8659532,-913.6444695251994,-490.9235775335692,-989.6560661746189,-472.8636006475426,109.0
1731821829.8659532,-896.5381671278737,-400.78450880153105,-985.0821685288101,-409.04968770360574,109.0
1731821829.8666813,-890.6478246976621,-390.0846550283022,-985.2504640268162,-398.52934912825003,110.0
1731821829.8666813,-894.1259316564538,-478.286455583293,-988.38824008964,-456.17616704525426,110.0
1731821829.879994,-909.126670378726,-431.87055723322555,-992.356273942627,-430.83834484545514,111.0
1731821829.879994,-899.1224379972555,-379.4483795543201,-982.2959430618212,-394.26586317876354,111.0
1731821829.8958547,-906.3180055120029,-458.03115742327645,-987.8758737957105,-446.0522578652017,112.0
1731821829.8958547,-897.9481094111688,-457.28691733209416,-985.493557523936,-439.95622093742713,112.0
1731821829.896559,-900.5099408808164,-380.39831414306536,-991.7354505499825,-401.5100493929349,113.0
1731821829.896559,-897.7723341132514,-432.02763303136453,-984.2668703384697,-432.54373922524974,113.0
1731821829.9104364,-891.1115722921677,-474.82330822432414,-983.0289634531364,-454.58296966413036,114.0
1731821829.9104364,-907.2155815013684,-407.1834776257165,-989.3119953786954,-416.74640181241557,114.0
1731821829.9256568,-895.6892098379321,-392.66144609777257,-985.1233074283227,-406.70851033134386,115.0
1731821829.9256568,-892.7945272722282,-471.6518730618991,-981.7835767678916,-462.5040777702816,115.0
1731821829.926382,-909.5081401742063,-426.9338892917149,-986.6304871104658,-427.16202318901196,116.0
1731821829.926382,-912.8703102343716,-382.14858732232824,-1004.3463932005689,-401.9962363871746,116.0
1731821829.9402232,-884.2563356733881,-454.99061875930056,-976.2597445333377,-446.0073790657334,117.0
1731821829.9402232,-891.7660547844134,-452.57838328788057,-983.4627918479964,-440.8949358263053,117.0
1731821829.95573,-884.5630074697547,-379.5755361528136,-973.3912412673235,-397.7551898374222,118.0
1731821829.95573,-869.6408066465519,-410.6167057850398,-962.7287864936516,-415.5421540266834,118.0
1731821829.9564238,-859.9619455612265,-454.9382601599209,-963.8432766804472,-443.79709819192067,119.0
1731821829.9564238,-870.8487943322398,-397.47843724070117,-986.0769819170237,-407.5911267208867,119.0
1731821829.9700763,-847.6352353072725,-386.7486642678268,-959.2880785344169,-401.7942817895673,120.0
1731821829.9700763,-858.9559124731459,-476.9101723995991,-981.3347887732089,-457.687086627353,120.0
1731821829.98596,-841.0754507849924,-419.00904128560796,-964.460360173136,-413.67594394879416,121.0
1731821829.98596,-862.2732037338428,-371.54223104799166,-976.5028380304575,-384.8712344900705,121.0
1731821829.986685,-857.4150736914016,-450.7084333100356,-976.4056006316096,-441.72145371651277,122.0
1731821829.986685,-855.8218763102777,-442.5704110064544,-973.5483170654625,-430.8196453456767,122.0
1731821830.001476,-860.3060163571499,-361.1079101716168,-975.9231535373256,-378.55454346491024,123.0
1731821830.001476,-877.1916646570899,-424.01302742632106,-983.5450696470216,-433.98734060814604,123.0
1731821830.016826,-869.4014530493878,-464.74053794378415,-976.7608911274001,-450.0576907177456,124.0
1731821830.016826,-871.7575900214724,-397.59437413932756,-981.633980769664,-416.27891431795433,124.0
1731821830.016841,-866.3309951857664,-387.6574599570595,-977.3742347201332,-404.7675022543408,125.0
1731821830.016841,-854.5877093249001,-468.2710035019554,-975.5416837418452,-456.0527503467165,125.0
1731821830.030088,-862.2058855346404,-422.4011305454187,-982.7596906563267,-424.2935199229978,126.0
1731821830.030088,-866.7349043809809,-375.80945689743385,-991.5222762525082,-394.9540047706105,126.0
1731821830.04587,-862.2545042340644,-451.0151051064022,-988.2423839913681,-444.0775906885974,127.0
1731821830.04587,-869.868940543849,-451.40405470179394,-984.9737114300951,-441.02583232475445,127.0
1731821830.0465097,-864.5358432070352,-375.3756285025738,-983.2570973504335,-395.18213866790757,128.0
1731821830.0465097,-877.4534576539882,-429.13669036561623,-991.7691096495837,-432.5923579246737,128.0
1731821830.0599544,-869.5996677470393,-474.0267095337622,-988.9567048829049,-457.795543726068,129.0
1731821830.0599544,-876.6306796637364,-402.6843779790215,-993.7400369262323,-411.7050166721456,129.0
1731821830.0759172,-873.4218455017544,-394.66977237397805,-987.8272550962865,-403.9783833636902,130.0
1731821830.0759172,-879.8021148261614,-471.07592846872285,-992.4684709412977,-457.3168365317397,130.0
1731821830.076537,-876.4324649660848,-423.71757532982156,-990.6396598629653,-419.05018018512055,131.0
1731821830.076537,-875.2394368802197,-378.2777908681892,-984.4426456363872,-400.4740971052088,131.0
1731821830.09009,-870.9946504305117,-450.39802161371335,-994.0728880222887,-453.5357976765372,132.0
1731821830.09009,-877.7040309510194,-454.47825246537104,-993.0406756345183,-446.57958375895396,132.0
1731821830.1059287,-873.5976207996719,-366.7439394048415,-986.7913028085604,-390.9784911177121,133.0
1731821830.1059287,-867.4118262729608,-416.6229851138778,-982.7372512565926,-421.1744433599524,133.0
1731821830.106541,-864.4498255080543,-457.25699813244864,-986.664146210067,-450.2372059156187,134.0
1731821830.106541,-878.0368820470758,-403.1705649732612,-988.9043462835252,-411.289887777064,134.0
1731821830.120012,-880.5800140169449,-400.1711652087979,-985.0372897293419,-416.2265557185747,135.0
1731821830.120012,-883.0221686880104,-475.1299800206907,-995.2210373086855,-464.51614394644275,135.0
1731821830.1359475,-884.2974745729007,-432.50634022569284,-992.6143270395696,-424.61515131918713,136.0
1731821830.1359475,-881.6608451041393,-371.68808714626357,-987.6552196983248,-395.18587856786326,136.0
1731821830.1365757,-888.4936423231848,-455.7984371497296,-992.0047233467922,-444.5301185832359,137.0
1731821830.1365757,-887.6933037326671,-449.98663261858746,-989.1137806810439,-437.98529366077855,137.0
1731821830.1500633,-875.0636615823023,-373.32616332685575,-986.0059238178656,-386.36345457239076,138.0
1731821830.1500633,-881.9188982010819,-425.17239641258493,-986.3948734132573,-430.2661401522346,138.0
1731821830.1660335,-875.6657854751684,-471.92862565862015,-990.9164124596864,-449.6500416225754,139.0
1731821830.1660335,-869.9399986430071,-394.9764441703446,-980.3287556851283,-398.5143895284273,139.0
1731821830.1666136,-887.1136192395352,-398.49195012869313,-993.6054005278274,-407.01518212771043,140.0
1731821830.1666136,-907.8700639936142,-484.2815152122639,-1012.2974205063656,-468.4355591000058,140.0
1731821830.1800497,-863.6607066174038,-423.16781003633514,-977.4452928192914,-423.1416307366453,141.0
1731821830.1800497,-844.1421687486582,-366.2764519103803,-955.7837922759354,-384.2728504971601,141.0
1731821830.19573,-839.6355893020518,-437.20739446999505,-949.6690558483824,-429.1853090650402,142.0
1731821830.19573,-813.0299410172738,-421.7354283533059,-931.4819223638624,-416.16671731928363,142.0
1731821830.1966653,-814.9672091943212,-350.7783064940013,-940.3043463593349,-370.61847575893626,143.0
1731821830.1966653,-817.9740887586959,-398.56674812780693,-941.9012836404145,-399.2922887192108,143.0
1731821830.210202,-810.0342811527662,-448.94320053095,-932.7460085488856,-428.42984927399084,144.0
1731821830.210202,-817.2784673669375,-370.2370059634559,-929.2903409898281,-382.09996862290427,144.0
1731821830.225917,-832.914989081677,-377.40639417851344,-951.8681170223281,-390.0883949282579,145.0
1731821830.225917,-837.2906720298342,-450.20728671597317,-951.0228996323422,-436.0368057838641,145.0
1731821830.2266316,-834.6054238616489,-397.47843724070117,-950.6302101369947,-398.77618252532557,146.0
1731821830.2266316,-848.9815992913209,-357.2670329171233,-960.7802986167371,-376.688333387021,146.0
1731821830.2400432,-855.2534115170129,-450.29330441495404,-961.8573898039758,-436.35843718005344,147.0
1731821830.2400432,-843.9738732506521,-423.9270097273402,-956.7599061643705,-415.68053032504395,147.0
1731821830.2558317,-861.6336808414198,-368.2025003875606,-972.9761123722419,-389.1197608397342,148.0
1731821830.2558317,-855.2534115170129,-412.12014556722715,-971.5025917897001,-419.49896817980334,148.0
1731821830.2566085,-849.2845311877318,-462.8593682660721,-972.890094673261,-442.8583833030425,149.0
1731821830.2566085,-852.3961279508658,-389.1197608397342,-976.5364971300587,-398.252596531529,149.0
1731821830.270042,-863.2829767218791,-386.43825257150456,-981.7611373681575,-400.8854861003347,150.0
1731821830.270042,-854.9317801208235,-460.4546125945635,-976.1699869344011,-443.2248934987001,150.0
1731821830.2860737,-860.9380594496615,-414.5473406384699,-981.9144732663408,-412.7783679594286,151.0
1731821830.2860737,-872.2400371157564,-369.8293568682857,-993.369786830619,-390.2118116267957,151.0
1731821830.286452,-864.3301487094723,-446.048517965246,-991.499836852774,-437.3382909684442,152.0
1731821830.286452,-862.3143426333554,-447.7202532454394,-994.1439461214468,-436.09290428319946,152.0
1731821830.3000247,-862.4265396320261,-369.72837956948206,-988.1526263924316,-388.2745434497483,153.0
1731821830.3000247,-866.8919801791199,-416.60802551405504,-976.315843032673,-417.9581293980591,153.0
1731821830.3156936,-871.8922264198773,-470.73933747271076,-982.7709103561938,-449.80711742071435,154.0
1731821830.3156936,-867.2098716753535,-393.97041108226404,-978.2007526103407,-405.3509266474284,154.0
1731821830.316394,-867.2136115753092,-390.6045011221431,-982.8494482552633,-403.49593626940623,155.0
1731821830.316394,-883.160544986371,-478.9970365748741,-990.0824147695675,-462.22732517356053,155.0
1731821830.3302257,-889.1593445152976,-428.3700108746998,-992.9995367350057,-429.46580156171694,156.0
1731821830.3302257,-880.9801833122037,-376.1273483936675,-986.4060931131244,-391.44223871221766,156.0
1731821830.3459,-875.4226919780485,-447.9745664424263,-986.6978053096682,-445.4613536722027,157.0
1731821830.3459,-870.9385519311763,-435.217767693568,-984.2930496381596,-422.8760978397913,157.0
1731821830.3466413,-882.2480093971826,-374.4556131134741,-989.5625686757267,-388.37178084859625,158.0
1731821830.3466413,-885.6587981567718,-430.3297184514813,-1000.1016067508608,-436.1452628825791,158.0
1731821830.3601453,-883.8000678787939,-468.3196222013794,-988.5565355876461,-452.03609779430553,159.0
1731821830.3601453,-887.7381825321354,-405.392065546941,-991.6494328510016,-417.53552070306614,159.0
1731821830.3757887,-892.6823302735575,-405.2424695487134,-996.806754889898,-419.16985698370263,160.0
1731821830.3757887,-881.1634384100325,-466.5095106228255,-985.8002293203026,-457.06626323470846,160.0
1731821830.376921,-884.9033383657224,-417.5542202028446,-986.7352043092251,-428.34383157501,161.0
1731821830.376921,-889.178044015076,-375.7907573976554,-993.5006833290681,-397.85990703618154,161.0
1731821830.3902028,-880.2060240213759,-456.07518974645063,-986.5444694114849,-445.3117576739751,162.0
1731821830.3902028,-884.6004064693116,-443.2323732986115,-990.1160738691688,-434.892396397423,162.0
1731821830.4059136,-914.6168435136788,-388.8430082430132,-1006.79228777159,-412.33705976465717,163.0
1731821830.4059136,-885.8906719540246,-425.6211844072677,-993.5418222285807,-429.90710975648835,163.0
1731821830.4066558,-856.554896701593,-464.25435094954446,-958.4802601439878,-450.1212690169923,164.0
1731821830.4066558,-867.3407681738026,-387.904293354135,-974.3561354558915,-400.7994684013538,164.0
1731821830.4200985,-868.4365588608198,-393.5328427874483,-969.8308565095067,-401.70452419063076,165.0
1731821830.4200985,-875.8415607730858,-472.0258630574681,-984.2706102384254,-460.0058245998807,165.0
1731821830.435879,-870.0521956416778,-416.42477041622624,-973.1219684705138,-412.37445876421407,166.0
1731821830.435879,-874.7270705862902,-367.87712909141555,-974.5132112540305,-377.48119217762724,166.0
1731821830.4366577,-875.3778131785803,-450.80567070888355,-976.8207295266911,-434.8175983983092,167.0
1731821830.4366577,-882.0049159000628,-437.570164765697,-975.1228149468079,-422.505847744178,167.0
1731821830.4500537,-886.5825534458272,-374.2312191161327,-980.0295636886731,-403.4734968696721,168.0
1731821830.4500537,-879.409425330814,-421.60827175481245,-981.7050388688222,-422.34503204608336,168.0
1731821830.4901977,-882.7528958912008,-472.8673405474983,-985.011110429652,-459.7627311027609,169.0
1731821830.4901977,-883.1156661869027,-396.85387394810095,-978.0474167121574,-413.01024175668135,169.0
1731821830.4902108,-876.9672706597485,-391.99948380561545,-978.8028765032068,-412.11640566727147,170.0
1731821830.4902108,-876.899952460546,-479.6889180666767,-974.0382439596578,-472.1044009565376,170.0
1731821830.4902227,-883.1530651864596,-416.74640181241557,-985.1046079285443,-419.20725598325953,171.0
1731821830.4902227,-885.4231844595633,-378.835035961587,-986.9147195070982,-397.5345357400365,171.0
1731821830.4959726,-871.9782441188581,-451.69950679829344,-973.8587287617847,-444.010272489395,172.0
1731821830.4959726,-880.1013068226166,-445.28183847432956,-980.7962431795895,-443.51286579528823,172.0
1731821830.4966264,-881.4439309067093,-369.2646319749765,-976.7870704270899,-397.10818714508787,173.0
1731821830.4966264,-892.024107881356,-435.4010227913968,-987.255050403066,-440.7191605283879,173.0
1731821830.509967,-889.4136577122845,-479.9058322641067,-986.0059238178656,-463.06506276363507,174.0
1731821830.509967,-894.6457777502947,-410.4259708872996,-993.7138576265424,-411.05427407985553,174.0
1731821830.5424452,-889.2640617140569,-406.2148435371928,-986.5257699117064,-415.83386622322723,175.0
1731821830.5424452,-882.7940347907133,-488.16353136627004,-986.398613313213,-459.92354680085555,175.0
1731821830.5428042,-881.9712568004616,-428.6318038715981,-980.5718491822481,-423.0406534378417,176.0
1731821830.5428042,-881.5262087057345,-377.61956847598776,-980.5793289821595,-386.69630566844717,176.0
1731821830.5439444,-877.6030536522157,-451.72942599793896,-981.5629226705059,-439.451334443409,177.0
1731821830.5439444,-881.8889790014364,-453.1131889815442,-980.874781078659,-428.8487180690281,177.0
1731821830.5445817,-894.0286942576058,-370.62595555884764,-988.2984824907035,-389.70692513277754,178.0
1731821830.5445817,-883.5046157822944,-416.6342048137449,-982.7671704562381,-417.04559380887076,178.0
1731821830.5553677,-887.2220763382502,-473.510603339877,-987.7075782977045,-452.29415089124814,179.0
1731821830.5553677,-883.6205526809208,-395.731903961394,-981.574142370373,-400.5825542039238,179.0
1731821830.5702078,-872.9169590077363,-389.77798323193565,-977.5799292176962,-398.49195012869313,180.0
1731821830.5702078,-878.9718570359983,-471.3975598649122,-985.3103024261072,-455.17387385712937,180.0
1731821830.585925,-890.1541579035111,-425.5501263081096,-988.3732804898173,-421.8139662523754,181.0
1731821830.585925,-886.81442724308,-369.6049628709443,-990.1160738691688,-389.03000324079767,181.0
1731821830.5866578,-887.7568820319138,-459.725332103204,-992.1954582445323,-446.9760131542571,182.0
1731821830.5866578,-886.1562048508786,-443.479206695687,-988.3695405898616,-432.0837315306999,182.0
1731821830.6001515,-881.1148197106086,-370.65213485853747,-986.7277245093137,-392.0593222049065,183.0
1731821830.6001515,-880.3967589191161,-422.397390645463,-985.373880725354,-421.45867575658485,183.0
1731821830.6160407,-883.1268858867697,-467.56042251037434,-980.7850234797224,-443.3483101972379,184.0
1731821830.6160407,-893.9987750579603,-398.9220386235975,-993.0593751342967,-406.25972233666107,184.0
1731821830.6165743,-895.3563587418757,-398.08430103352293,-992.3525340426713,-410.2950743888505,185.0
1731821830.6165743,-879.5440617292188,-472.74392384896055,-986.989517506212,-457.6908265273087,185.0
1731821830.6300688,-888.79283431964,-420.90143066318706,-985.8525879196823,-419.39051108108833,186.0
1731821830.6300688,-893.6659239619039,-373.58047652384266,-991.6868318505585,-397.5307958400808,186.0
1731821830.6459348,-889.394958212506,-453.9808457712643,-990.751856861636,-444.2571058864705,187.0
1731821830.6459348,-873.6649389988743,-439.0362055483274,-981.2786902738735,-432.0687719308771,187.0
1731821830.6465788,-876.8849928607233,-369.8929351675324,-981.4993443712592,-376.52003788901493,188.0
1731821830.6465788,-882.2741886968724,-423.9943279265426,-978.2306718099862,-423.0331736379303,188.0
1731821830.660992,-874.5064164889045,-462.6461939685978,-980.2950965855271,-449.0740970293991,189.0
1731821830.660992,-882.4686634945683,-394.6884718737565,-986.3948734132573,-403.1331659737043,189.0
1731821830.692044,-878.938197936397,-399.96921061119065,-984.0013374416158,-406.89924522908404,190.0
1731821830.692044,-876.1070936699398,-463.7120654559694,-985.97600461822,-464.3067095489241,190.0
1731821830.6928685,-879.6824380275793,-421.49981465609744,-986.8399215079844,-423.4782217326574,191.0
1731821830.6928685,-890.8647388950922,-378.244131768588,-992.0982208456844,-390.5409228228964,191.0
1731821830.6937053,-878.3659932431765,-449.9828927186318,-978.3466087086126,-446.14575536409393,192.0
1731821830.6937053,-872.0717416177504,-436.60901047708467,-983.9452389422804,-432.71951452316716,192.0
1731821830.6944473,-893.4639693642966,-387.54900285834447,-995.0751812104136,-403.86244646506384,193.0
1731821830.6944473,-883.2054237858392,-430.3072790517472,-990.4713643649593,-430.57281194860116,193.0
1731821830.7052102,-872.7898024092428,-474.12020703265443,-983.9041000427678,-456.505278241355,194.0
1731821830.7052102,-879.046655035112,-400.19360460853204,-986.3163355141878,-403.11072657397017,194.0
1731821830.7200968,-879.4804834299721,-394.49025717610493,-983.503930747509,-392.4744510999881,195.0
1731821830.7200968,-878.9494176362641,-476.29308890691027,-987.2887095026672,-445.4052551728673,195.0
1731821830.7358773,-880.9315646127798,-424.68994931830093,-982.1239076638594,-422.8162594405003,196.0
1731821830.7358773,-883.5345349819399,-364.410241832491,-990.740637161769,-392.83722139569,196.0
1731821830.7366233,-858.170533482451,-437.0839777714573,-981.4245463721454,-434.1144972066395,197.0
1731821830.7366233,-874.427878589835,-438.2732659573667,-987.0904948050156,-431.563885436859,197.0
1731821830.7511015,-883.811287578661,-373.8609690205194,-990.4975436646491,-383.55104980571195,198.0
1731821830.7511015,-880.759529214818,-436.1901416820474,-983.8966202428564,-430.6027311482467,198.0
1731821830.7660859,-886.7620686437003,-483.90378531673923,-984.637120434083,-460.03948369948193,199.0
1731821830.7660859,-888.8564126188867,-397.04086894588545,-992.7564432378858,-405.018075551372,199.0
1731821830.7663713,-888.2468089261092,-409.11700590280816,-990.6733189625666,-408.4812229103409,200.0
1731821830.7663713,-888.9499101177789,-487.1462785783224,-989.2072781799361,-468.903046594467,200.0
1731821830.7818718,-889.2584518641233,-430.1034545041621,-985.2336344770156,-421.50916440598667,0.0
1731821830.7819,-891.5248312372714,-377.7336354246363,-987.279359752778,-398.1086103832349,101.0
1731821830.7819,-890.0326111549512,-465.75218088179827,-987.0362662556581,-449.4462170749903,101.0
1731821830.7952535,-892.8337962217629,-446.555274409242,-994.9573743618093,-440.48915668111295,102.0
1731821830.7952535,-886.9097946919501,-374.82025335915387,-988.7641000351869,-399.24180006980896,102.0
1731821830.8114347,-895.1226149946451,-433.63765996228904,-1000.3540499978699,-429.82296200748533,103.0
1731821830.8114347,-893.5032383138314,-476.4782139547169,-988.2592135411687,-454.07995312009007,103.0
1731821830.8114629,-894.8570820977911,-397.58502438943833,-987.4177360511385,-420.2413383210078,104.0
1731821830.8114629,-886.090756601654,-403.4529274199158,-991.7111412002705,-426.2363979499787,104.0
1731821830.82531,-886.4086480978876,-476.1827618582174,-982.6905025071464,-468.0447395546362,105.0
1731821830.82531,-893.5144580136985,-421.36704820767045,-992.3768433923833,-423.45017248298973,105.0
1731821830.8417752,-888.5890097720549,-369.6965904198587,-991.9355351976119,-397.3045318927616,106.0
1731821830.8417752,-862.4508489817381,-448.8141739824787,-991.8345578988083,-445.75867571868,106.0
1731821830.841804,-865.4203295465559,-432.5082101756707,-985.1401369781233,-422.15242719836533,107.0
1731821830.841804,-889.5539039606228,-370.90083820559084,-979.246054647956,-382.730141765438,107.0
1731821830.8555264,-904.1619531875476,-432.14917977992445,-988.786539434921,-437.8338277125731,108.0
1731821830.8555264,-913.5790212759748,-475.0121731720865,-997.6949811293744,-462.19927592389286,108.0
1731821830.8719254,-897.6657469645143,-401.2276869462803,-991.4568280032836,-407.9744664663449,109.0
1731821830.8719254,-882.3171975463629,-405.61458959430456,-985.9068164690398,-413.17666730470955,109.0
1731821830.872125,-890.6571744475514,-481.7851319918409,-985.5964047727175,-455.6619308013469,110.0
1731821830.872125,-898.2753506572917,-429.9538585059345,-981.4787749215029,-425.40240025985986,110.0
1731821830.8853033,-893.1890867175534,-382.90217716339976,-980.2483478360809,-394.2677331287414,111.0
1731821830.8853033,-893.5331575134769,-463.5942586073652,-980.8803909285925,-450.4634698629379,111.0
1731821830.901352,-880.8474168637767,-446.26730211265385,-977.3349657705985,-440.8855860764161,112.0
1731821830.901352,-883.3269705343992,-369.67415102012455,-976.9160969755612,-392.65583624783903,112.0
1731821830.9013784,-888.4880324732512,-432.5306495754048,-987.8515644459985,-423.70448567997664,113.0
1731821830.9013784,-876.9167820103467,-465.9167364798486,-982.623184307944,-448.71319668367505,113.0
1731821830.9152796,-879.059744684957,-385.0040009384975,-977.8248926647939,-399.91124216187745,114.0
1731821830.9152796,-887.489479185082,-406.5346049834043,-983.5843385965563,-412.7503187097609,114.0
1731821830.931085,-877.5974438022822,-475.20290806982666,-977.907170463819,-450.04086116794497,115.0
1731821830.931085,-877.2122341068462,-419.949626124464,-974.7544348011725,-419.80377002619207,115.0
1731821830.931508,-880.8661163635552,-379.2856939062476,-980.9738884274848,-394.28269272856414,116.0
1731821830.931508,-878.6633152896538,-460.00769454985857,-981.9500023159198,-443.0622078506276,116.0
1731821830.945304,-895.0141578959301,-443.1818846492097,-994.8189980634488,-432.7251243731007,117.0
1731821830.945304,-882.4705334445462,-370.30993401259184,-983.90223009279,-386.9973676148802,117.0
1731821830.9612465,-892.8973745210096,-440.26476268377155,-985.891856869217,-431.7303109848872,118.0
1731821830.9612465,-883.0689174374565,-470.9955206196755,-980.2782670357265,-452.19130364246666,118.0
1731821830.961355,-878.2556661944836,-394.5594453252852,-983.950848792214,-395.5617385134101,119.0
1731821830.961355,-881.1989674596116,-407.9295876668766,-987.2195213534869,-414.3135968912393,119.0
1731821830.9750392,-875.8322110231966,-471.39568991493434,-974.9788287985139,-451.41714435163885,120.0
1731821830.9750392,-892.313950127922,-419.7177523272112,-993.6970280767418,-427.6949589326978,120.0
1731821830.9911392,-892.4972052257508,-379.2258555069566,-989.6691558244638,-403.46414711978287,121.0
1731821830.9911392,-891.7454853346571,-458.6239315662533,-992.9789672852494,-449.8089873706922,121.0
1731821830.991364,-889.419267562218,-444.86109972931445,-995.1256698598154,-436.07233483344316,122.0
1731821830.991364,-904.6144810821861,-396.6051706010476,-1013.522237741854,-395.31116521637887,122.0
1731821831.0060108,-902.8006296036765,-439.63271959125996,-1010.6200753762387,-434.1612459560856,123.0
1731821831.0060108,-875.3535038288683,-469.7089950349182,-965.8646926064976,-445.7998146181926,123.0
1731821831.03717,-893.0656700190157,-392.65583624783903,-975.9586825869046,-405.02368540130556,124.0
1731821831.03717,-885.0996831133962,-400.3824695562944,-970.1431381558068,-419.29140373226255,124.0
1731821831.037834,-882.8295638402924,-471.5976445125416,-972.6077322266065,-455.5085949031636,125.0
1731821831.037834,-873.0272860564291,-412.03225791826844,-954.2560431440361,-417.61966845206916,125.0
1731821831.0386891,-888.7311259703711,-367.70696364343166,-966.7061700965278,-406.42614788468927,126.0
1731821831.0386891,-885.7915646051988,-456.8848780868575,-968.3666856768541,-444.2477561365813,126.0
1731821831.039368,-890.2420455524698,-451.1104725552723,-976.0820992854424,-449.46117667481303,127.0
1731821831.039368,-894.6364280004054,-378.2273022187874,-978.8832843522541,-407.5331582715735,127.0
1731821831.0507965,-890.3766819508746,-429.69954530894756,-980.8429919290356,-435.66468573827296,128.0
1731821831.0507965,-888.3833152744919,-474.39882957935333,-979.7621608418413,-451.20023015420884,128.0
1731821831.0651848,-893.8473091097549,-394.9222156209871,-977.630417867098,-414.14904129318893,129.0
1731821831.0651848,-888.8919416684657,-397.9702340848744,-976.0633997856639,-418.3152898438275,129.0
1731821831.081024,-883.5251852320507,-472.09131130669266,-970.2403755546547,-466.76569376979023,130.0
1731821831.081024,-886.8536961926147,-418.6144818402827,-969.8925648587756,-424.8750743661076,130.0
1731821831.0814695,-896.3829612797126,-377.3297262294218,-977.1404909729026,-405.83524369169027,131.0
1731821831.0814695,-891.9362202323973,-466.5973982717842,-973.9615760105662,-457.16911048348993,131.0
1731821831.095477,-899.4870782429352,-443.74660954251885,-979.5377668444999,-431.8387680836022,132.0
1731821831.095477,-900.4370128316805,-385.2919732350856,-981.3703178227879,-397.588764289394,132.0
1731821831.1112566,-896.6933729760349,-424.9124733656645,-982.0023609152995,-442.33666725922376,133.0
1731821831.1112566,-906.2188981631771,-485.13234245218337,-994.1832150709815,-468.8076791455969,133.0
1731821831.1113203,-906.9406988546252,-393.53845263738185,-992.2496867938899,-410.13612864073366,134.0
1731821831.1113203,-901.7945965155959,-413.02333140652627,-994.9237152622081,-415.09897588193417,134.0
1731821831.1253023,-886.7564587937668,-466.82927206903696,-974.6384979025461,-455.5422540027648,135.0
1731821831.1253023,-897.8228227626532,-423.9887180766091,-975.3228995944373,-431.5470558870584,135.0
1731821831.14171,-904.5135037833825,-384.3719578459859,-989.8150119227357,-400.6816615527496,136.0
1731821831.14171,-891.5360509371385,-462.31895272247493,-978.1839230605401,-451.4433236513287,136.0
1731821831.141733,-892.3289097277448,-444.56190773285925,-976.8786979760043,-434.1799454558641,137.0
1731821831.141733,-903.8291020914912,-368.4998224340379,-982.0098407152109,-405.98483968991786,137.0
1731821831.1555626,-897.2431382695213,-438.7201840020716,-981.0225071269087,-444.60304663237184,138.0
1731821831.1555626,-888.5553506724536,-467.01626706682146,-978.7187287542038,-461.71682882960886,138.0
1731821831.1878715,-893.6752737117931,-405.5173521954566,-983.3636844991706,-399.72050726413727,139.0
1731821831.1878715,-898.8886942500249,-402.24493973422796,-987.7019684477709,-431.9397453824058,139.0
1731821831.187899,-882.5715107433498,-467.13594386540353,-970.9210373465903,-466.7881331695244,140.0
1731821831.187899,-900.1602602349594,-420.3086565202102,-981.1197445257567,-414.3397761909291,140.0
1731821831.1884644,-895.0066780960187,-369.8761056177318,-975.2331419955008,-382.2177754715085,141.0
1731821831.1884644,-888.9555199677125,-462.5096876202151,-979.2722339476459,-447.3668326996267,141.0
1731821831.1895661,-897.1421609707177,-441.3904725704342,-981.441375921946,-450.9234775574878,142.0
1731821831.1895661,-893.8847081093118,-376.78370083589107,-977.473342068959,-401.7400532402098,142.0
1731821831.2000496,-891.9810990318656,-428.9740047175437,-982.2604140122421,-429.0600224165246,143.0
1731821831.2000496,-895.1375745944679,-469.0694721424952,-979.1188980494626,-454.7306957123801,143.0
1731821831.2313943,-915.4003525543958,-407.14046877622604,-990.5854313136078,-420.4208535188809,144.0
1731821831.2313943,-888.1589212771505,-404.0849705124274,-984.0742654907517,-418.80895663797855,144.0
1731821831.2323353,-883.5551044316962,-475.87609006185085,-976.1531573846005,-478.0489719361067,145.0
1731821831.2323353,-902.2097254106775,-418.66310053970665,-1000.8364970921539,-437.5421155160293,145.0
1731821831.2331228,-916.1670320453122,-398.98000707291067,-1006.7604986219667,-422.63113439269364,146.0
1731821831.2331228,-902.4415992079303,-473.0001069959253,-993.4352350798436,-466.1373905772343,146.0
1731821831.2452788,-903.2681170981377,-449.9099646694958,-997.4743270319887,-449.3228003764525,147.0
1731821831.2452788,-894.6476477002725,-374.38642496429384,-990.3124186168425,-407.237706175074,147.0
1731821831.261711,-906.0431228652596,-442.5909804562107,-994.3440307690762,-456.0695798965171,148.0
1731821831.261711,-908.8143887324259,-494.833642937243,-997.7622993285768,-479.926401713863,148.0
1731821831.2617404,-900.5679093301296,-406.95721367839724,-991.7261008000933,-437.62813321501017,149.0
1731821831.2617404,-902.5612760065123,-424.5310035701841,-996.4757737438194,-419.62051492836326,149.0
1731821831.2752385,-895.8294560862705,-482.6079099820927,-989.4335421272554,-463.5493798078969,150.0
1731821831.2752385,-907.6138808466494,-427.39950683619827,-995.6230765539221,-432.62414707429707,150.0
1731821831.2924268,-904.6930189812556,-379.01642110943794,-993.9102023742162,-408.25495896302164,151.0
1731821831.2924268,-896.3680016798899,-470.6252705240622,-989.2315875296481,-452.6513113370165,151.0
1731821831.2924562,-889.4080478623509,-444.3150743357837,-989.5532189258374,-433.34220786578953,152.0
1731821831.2924562,-884.5648774197325,-366.3680794592947,-987.2157814535312,-397.4391682911664,152.0
1731821831.3051174,-888.0168050788343,-423.43895278312266,-987.0961046549492,-428.8393683191389,153.0
1731821831.3051174,-892.519644625485,-480.35275030881166,-990.3086787168868,-463.8111728047952,153.0
1731821831.321416,-901.4505257196724,-385.624824331142,-990.1179438191466,-415.88061497267336,154.0
1731821831.321416,-894.7000062996522,-400.6629620529711,-991.0379592082463,-416.92778696026653,154.0
1731821831.3214445,-892.3887481270358,-476.1491027586162,-998.8019915162586,-463.83361220452935,155.0
1731821831.3214445,-890.975065943785,-427.93057262990624,-1000.0062393019907,-425.30142296105623,155.0
1731821831.3356054,-895.1861932938918,-382.79372006468475,-994.6282631657086,-400.049618460238,156.0
1731821831.3356054,-897.632087864913,-482.1553820874542,-1000.1184363006614,-470.3447780273855,156.0
1731821831.3518388,-896.4054006794468,-451.0356745561585,-992.5900176898576,-445.5529812211171,157.0
1731821831.3518388,-899.4160201437771,-379.4465096043423,-990.9220223096199,-408.7972444565967,157.0
1731821831.3518636,-901.3084095213562,-445.4033852228895,-992.6984747885726,-441.96267726365477,158.0
1731821831.3518636,-910.1906719161198,-498.47630549408495,-1008.5818299003877,-479.91892191395164,158.0
1731821831.3650792,-892.3588289273903,-414.0181447947398,-993.9326417739503,-416.20972616877407,159.0
1731821831.3650792,-892.3064703280106,-423.73440487962216,-997.9380746264942,-422.25714439712465,159.0
1731821831.3970838,-896.2408450813964,-489.4519269010052,-1003.3871088619344,-480.87259640265256,160.0
1731821831.3970838,-887.0743502900004,-422.03649029973894,-982.7092020069249,-432.59048797469586,160.0
1731821831.3977923,-887.3548427866772,-388.45592859759927,-981.7742270180024,-406.6767211817205,161.0
1731821831.3977923,-884.2357662236318,-463.0669327136129,-984.8334651817568,-468.3626310508698,161.0
1731821831.398523,-884.1908874241635,-444.0645010387525,-992.2571665938012,-439.4980831928551,162.0
1731821831.398523,-901.4841848192737,-393.09340454265475,-995.3949426566251,-405.64824869390577,162.0
1731821831.3992896,-883.6635615304112,-419.153027433902,-980.5363201326691,-420.7163056153804,163.0
1731821831.3992896,-891.7941040340811,-463.05571301374584,-991.8420376987197,-440.11890658549964,163.0
1731821831.41001,-895.9416530849412,-396.2723195049912,-992.5077398908325,-412.85129600856453,164.0
1731821831.41001,-899.6553737409413,-409.5564441476017,-993.3716567805968,-417.9076407486573,164.0
1731821831.425249,-896.2109258817509,-481.3812227966264,-997.7772589283995,-475.1842085700482,165.0
1731821831.425249,-892.2840309282765,-411.8190836207941,-983.9845078918152,-428.3494414249435,165.0
1731821831.4408035,-892.3588289273903,-382.5506265675649,-988.363930739928,-407.6378754703328,166.0
1731821831.4408035,-885.8177439048886,-466.6385371712968,-989.8337114225142,-473.75556678697467,166.0
1731821831.441563,-890.9900255436078,-438.2377369077876,-993.3417375809513,-428.36814092472196,167.0
1731821831.441563,-889.8343964572996,-374.12837186735123,-990.9108026097529,-396.02548610791564,167.0
1731821831.4551065,-889.1574745653197,-432.5343894753605,-987.5598522494547,-425.1967057622969,168.0
1731821831.4551065,-901.0391367245466,-470.68136902339756,-997.7585594286211,-458.3733582692221,168.0
1731821831.470912,-894.9281401969492,-374.2106496663764,-987.8515644459985,-399.7392067639157,169.0
1731821831.470912,-891.5734499366954,-398.7481332756579,-985.734781071078,-417.69446645118296,169.0
1731821831.4714537,-891.6445080358535,-489.10411620512605,-991.3708103043027,-468.179375953041,170.0
1731821831.4714537,-890.9788058437407,-414.0218846946955,-988.0310796438716,-432.9083794709295,170.0
1731821831.4851012,-898.4511259552091,-389.8995299804956,-999.6846079058014,-405.39767539687455,171.0
1731821831.4851012,-890.3467627512291,-471.6013844124973,-989.6691558244638,-464.6638699946925,171.0
1731821831.5009258,-891.0760432425886,-449.27044177707285,-989.800052322913,-439.7262170901522,172.0
1731821831.5009258,-889.6623610593379,-376.2451552422717,-984.1976821892895,-392.9325888445601,172.0
1731821831.5015874,-892.736558822915,-418.73041873890907,-991.9766740971245,-442.0935737621039,173.0
1731821831.5015874,-872.5448389621451,-466.23462797608227,-974.3580054058693,-432.5792682748288,173.0
1731821831.5155854,-868.4795677103102,-374.999768557027,-963.73668953171,-372.93534378148615,174.0
1731821831.5155854,-877.2084942068905,-396.1825619060546,-971.0294944453053,-392.02753305528313,174.0
1731821831.5307453,-883.3905488336459,-461.64951063040644,-978.3484786585905,-438.9221385996789,175.0
1731821831.5307453,-888.6413683714345,-413.5581371001899,-985.3046925761737,-426.21769845020026,175.0
1731821831.5314963,-892.0334576312453,-369.48341612238437,-988.8575975340791,-394.0395992314443,176.0
1731821831.5314963,-897.2169589698315,-480.2929119095206,-996.39723584475,-469.5930581362918,176.0
1731821831.545178,-887.9943656791002,-437.66553221456707,-990.8621839103289,-436.81283502466977,177.0
1731821831.545178,-881.1615684600547,-373.5187681745738,-978.6102716554888,-396.8520039981231,177.0
1731821831.5614517,-892.2241925289854,-437.5421155160293,-991.7261008000933,-442.9874098515138,178.0
1731821831.5614517,-897.7629843633622,-472.4877407019958,-995.5333189549856,-466.2234082762152,178.0
1731821831.5614796,-909.476351024583,-398.5573983779177,-996.8684632391669,-427.1339739393443,179.0
1731821831.5614796,-886.7078400943428,-393.1083641424775,-982.346431711223,-423.4239931832999,179.0
1731821831.574974,-885.4923726087436,-468.19807545281947,-979.4106102460064,-470.5130735253915,180.0
1731821831.574974,-891.3565357392654,-422.5413767937571,-979.5639461441897,-433.9069327590987,180.0
1731821831.5906367,-891.7941040340811,-381.0359670855105,-988.72670103563,-403.5688643185422,181.0
1731821831.5906367,-897.0711028715596,-475.0383524717763,-995.1892481590621,-475.898529461585,181.0
1731821831.591398,-903.9712182898074,-439.5728811919689,-1000.2418529991992,-450.82998005859554,182.0
1731821831.591398,-893.2077862173319,-394.20041492953897,-989.8299715225585,-413.3150436030701,182.0
1731821831.605055,-893.7725111106411,-426.8759208424017,-982.2117953128181,-438.8697800002992,183.0
1731821831.605055,-883.7682787291706,-472.0127734076232,-981.6358507196419,-461.09226553700864,183.0
1731821831.620849,-885.3352968106046,-389.5105803851038,-979.0029611508362,-411.6096492232755,184.0
1731821831.620849,-893.5219378136098,-400.0122194606811,-986.325685264077,-434.5763748511672,184.0
1731821831.621408,-896.7008527759463,-481.6691950932145,-989.702814924065,-474.1557360822335,185.0
1731821831.621408,-893.4620994143188,-417.7206457508728,-991.415689103771,-416.7632313622162,185.0
1731821831.6351275,-885.7130267061293,-368.19689053762704,-993.3118183813058,-407.1180293764919,186.0
1731821831.6351275,-889.4641463616863,-474.91493577323854,-988.0535190436058,-460.075012749061,186.0
1731821831.6504729,-903.0100640011951,-443.4399377461523,-999.8042847043835,-445.6913575194776,187.0
1731821831.6504729,-893.6977131115273,-377.3334661293775,-984.8484247815795,-398.2320270817727,187.0
1731821831.6822076,-885.8701025042683,-435.0139431459829,-978.9393828515895,-439.52426249254495,188.0
1731821831.6822076,-894.8645618977025,-463.9532890031114,-986.108771066647,-461.94870262686163,188.0
1731821831.6829612,-891.9810990318656,-388.43348919786513,-985.0802985788323,-403.7109805168584,189.0
1731821831.6829612,-883.4728266326711,-404.7544126044959,-986.0227533676662,-412.6119424114004,189.0
1731821831.6837008,-891.988578831777,-479.4102955199778,-985.0690788789652,-462.04594002570957,190.0
1731821831.6837008,-898.6904795523733,-427.0217769406736,-989.3026456288062,-421.7634776029736,190.0
1731821831.684283,-890.4402602501214,-375.31392015330493,-987.9413220449351,-394.73148072324693,191.0
1731821831.684283,-905.6242540702224,-466.2159284763038,-999.2133805113845,-464.7685871934518,191.0
1731821831.6951425,-899.8348889388144,-442.430164758116,-995.1518491595052,-437.6206534150988,192.0
1731821831.6951425,-904.3414683854207,-383.1116115609184,-999.3854159093462,-401.5343587426469,192.0
1731821831.7107537,-890.1261086538434,-424.4562055710703,-987.4326956509613,-421.40070730727166,193.0
1731821831.7107537,-895.5751428892836,-465.83819858077914,-989.0932112312876,-442.9874098515138,193.0
1731821831.711375,-896.3754814798012,-390.80084586981684,-985.2298945770599,-404.27944531012326,194.0
1731821831.711375,-892.7440386228263,-405.4986526956782,-986.000313967932,-418.1208150461316,194.0
1731821831.7413995,-899.344962044619,-476.1827618582174,-988.1844155420549,-461.9262632271275,195.0
1731821831.7413995,-893.4134807148948,-411.88266192004085,-987.5299330498092,-417.54861035291106,195.0
1731821831.7421014,-905.8673475673422,-389.2226080885157,-995.3650234569795,-404.69831410516053,196.0
1731821831.7421014,-889.8343964572996,-462.0982986250892,-977.3723647701554,-447.3705725995824,196.0
1731821831.742851,-883.8692560279742,-434.78206934873015,-983.4459622981958,-427.4556053355336,197.0
1731821831.742851,-872.7916723592207,-371.6114191971719,-975.2256621955894,-387.229241412133,197.0
1731821831.7550392,-884.0338116260245,-431.2516037905589,-979.4367895456962,-429.1236007157713,198.0
1731821831.7550392,-870.0428458917886,-450.97209625691175,-972.3272397299297,-431.5320962872356,198.0
1731821831.7707317,-830.8262549564242,-371.0728736035526,-933.7763509866782,-376.7051629368216,199.0
1731821831.7707317,-818.8997139977291,-384.78708674106747,-914.6056238138117,-386.94126911554486,199.0
1731821831.7713404,-795.3009452773258,-438.9034390999004,-900.382784282323,-416.2396453684196,200.0
1731821831.7713404,-765.9651700248942,-366.9926427518949,-873.2124111042358,-369.86114601790905,200.0
1731821831.7856681,-733.3158434117213,-322.8075947253965,-847.7810914055444,-336.20952621661127,0.0
1731821831.786354,-676.3833463862538,-384.8974137897603,-804.861999514047,-367.546147945337,101.0
1731821831.786354,-634.5151663823053,-335.5419540745206,-761.0640311329626,-321.9231083858758,101.0
1731821831.8000555,-606.1106262188405,-257.01901460485533,-727.7265629279427,-272.51902997121215,102.0
1731821831.8000555,-598.4774904092774,-313.1698725395836,-706.0463628848083,-314.42460897471756,102.0
1731821831.8160532,-587.9234927343205,-334.2965673892759,-692.9305337402038,-317.6783219361678,103.0
1731821831.8160532,-601.2113572768867,-252.22820276161656,-693.2895641359501,-257.43975334987044,103.0
1731821831.816808,-608.2610686933622,-279.86980333412066,-695.6232617083006,-281.2068175682798,104.0
1731821831.816808,-607.3485331041738,-339.251934830565,-693.9702259278856,-316.72090754751116,104.0
1731821831.8301332,-619.5667862594128,-287.9405074384995,-716.5330423605628,-287.9872561879456,105.0
1731821831.8301332,-633.7185676917434,-251.79811426671222,-712.3331347103231,-268.18074602261186,105.0
1731821831.845945,-655.1893333373591,-340.5496801151894,-736.3657318255864,-330.21820648759604,106.0
1731821831.845945,-669.1129808723927,-322.0259556346573,-748.8382981778122,-312.0086336033419,106.0
1731821831.846489,-699.8100797086954,-276.57869137311354,-780.3731346041895,-288.1331122862175,107.0
1731821831.846489,-712.5369592579082,-352.2331275767647,-807.9586366773583,-345.06934921164066,107.0
1731821831.8600776,-737.0258241677657,-380.6750667397864,-824.5301333810203,-368.0323349395767,108.0
1731821831.8600776,-767.0983597114682,-320.2457632557489,-851.0385442669503,-338.636721287854,108.0
1731821831.875778,-779.4175901655108,-347.778906729538,-869.9923572423868,-355.01000329386443,109.0
1731821831.875778,-797.5448852507398,-418.8893644870259,-891.1901101912372,-396.7136276997626,109.0
1731821831.8765523,-815.5637232372537,-375.88051499659196,-906.0487327151932,-362.8750129006803,110.0
1731821831.8765523,-831.3124419506639,-347.75646732980385,-925.6271089832298,-356.0945742810145,110.0
1731821831.8901024,-842.1880710218102,-430.8981832447462,-940.6502871052362,-412.387548414059,111.0
1731821831.8901024,-860.3228459069505,-418.79586698813364,-952.3374744667672,-405.28921829815954,111.0
1731821831.9057753,-861.8898639883846,-348.2164750243537,-956.5635614166968,-359.9429313354194,112.0
1731821831.9057753,-871.7781594712287,-419.2184756831266,-960.7185902674682,-430.29792930185795,112.0
1731821831.9065013,-876.2959586177021,-452.98603238305077,-972.963022722397,-447.3705725995824,113.0
1731821831.9065013,-896.55873657763,-383.9100802014582,-990.7911258111708,-402.36461653281003,113.0
1731821831.9200988,-908.4590982366353,-417.2213691067882,-1000.32787069818,-415.5365441767499,114.0
1731821831.9200988,-914.0165895707905,-482.11611313791946,-994.9274551621638,-456.75772148836404,114.0
1731821831.9359207,-916.3241078434512,-429.7836930579506,-1009.2325724926777,-437.5720347156748,115.0
1731821831.9359207,-919.6040001045913,-400.18612480862066,-1015.3286094204523,-419.3811613311991,115.0
1731821831.9366086,-922.3790058717132,-485.8335736938752,-1022.0679091406055,-473.54613238945603,116.0
1731821831.9366086,-918.713903915137,-446.06721746502444,-1017.2658775974996,-435.11118054483086,116.0
1731821831.9504225,-925.8870320301503,-389.8976600305177,-1020.3699945607223,-401.25012634601444,117.0
1731821831.9504225,-922.296728072688,-449.98663261858746,-1020.6617067572661,-446.97414320427924,117.0
1731821831.9659417,-943.0307334270328,-498.04808694915846,-1032.603207315784,-481.5233389949426,118.0
1731821831.9659417,-951.8494175225496,-430.7710266462527,-1041.6986440080218,-433.6974983615801,118.0
1731821831.9666145,-947.4699946744367,-447.58561684703454,-1037.5249156574719,-443.8438469413668,119.0
1731821831.9666145,-938.5652928799391,-510.0793451066129,-1034.1552657973953,-480.1096568116918,119.0
1731821831.980048,-933.7071628374979,-445.06492427689955,-1033.4147656061687,-439.3484871946275,120.0
1731821831.980048,-943.4009835226461,-416.20037641888484,-1038.983476640191,-424.81523596681654,120.0
1731821831.995602,-946.284446388483,-496.148217771668,-1034.869586688932,-477.35335054434836,121.0
1731821831.995602,-949.1118107549846,-462.0964286751114,-1041.455550510902,-452.75976843573153,121.0
1731821832.0112388,-955.450941179879,-397.7290105377324,-1046.4819760513492,-414.40709439013153,122.0
1731821832.0112388,-952.4552813153714,-462.2684640730731,-1051.3139267941006,-459.5102878557518,122.0
1731821832.011489,-938.228701883927,-483.8888257169165,-1043.325500488747,-477.9741739369929,123.0
1731821832.011489,-947.62333057262,-405.88947224104777,-1038.5795674449764,-421.7597377030179,123.0
1731821832.0258176,-946.5537191852927,-430.2960593518801,-1032.5882477159612,-433.11407396849245,124.0
1731821832.0258176,-948.6106641609222,-501.01008771406487,-1035.1126801860519,-471.46300811413676,124.0
1731821832.0264363,-948.4461085628718,-438.1461093588732,-1039.3986055352725,-443.7653090422973,125.0
1731821832.0264363,-951.5614452259615,-404.9058785527013,-1046.1079860557802,-424.74043796770275,125.0
1731821832.0401,-945.7945194942877,-492.1876637185924,-1043.1347655910067,-474.88127667363733,126.0
1731821832.0401,-953.5959508018568,-461.5728426813148,-1043.2955812891014,-454.12857181951404,126.0
1731821832.055819,-956.1316029718146,-399.33342761872336,-1047.4094712403603,-418.62944144010544,127.0
1731821832.055819,-953.4949735030532,-462.10764837497845,-1046.2351426542737,-457.94700967427343,127.0
1731821832.0566132,-947.9599215686321,-489.0760669554584,-1045.109432767611,-472.304485604167,128.0
1731821832.0566132,-948.9659546567127,-420.0674329730682,-1040.273742124904,-425.96712515316904,128.0
1731821832.0700908,-945.4504486983642,-437.5664248657413,-1037.715650555212,-441.1286795735359,129.0
1731821832.0700908,-942.2752736359835,-502.19563600001857,-1036.1710718735121,-483.1202762760222,129.0
1731821832.08596,-935.2068627197295,-432.106170930434,-1031.5747348279692,-431.4722578879446,130.0
1731821832.08596,-949.1828688541427,-397.62803323892877,-1037.7193904551677,-428.62619402166456,130.0
1731821832.086551,-949.6241770489141,-494.83551288722083,-1044.4287709756754,-482.65278878156096,131.0
1731821832.086551,-945.3158122999594,-461.9505725768395,-1037.9288248526864,-461.7729273289442,131.0
1731821832.1004643,-937.2376283956692,-395.9787373584695,-1036.8779129651375,-407.5668173711747,132.0
1731821832.1004643,-939.7695406656712,-454.88590156054124,-1029.7459237496369,-456.3313728934154,132.0
1731821832.115909,-933.4304102407768,-486.5030157859437,-1027.210271579679,-467.05366606637836,133.0
1731821832.115909,-933.452849640511,-413.545047450345,-1032.1095405216329,-425.70159225631505,133.0
1731821832.1164913,-943.8572513172403,-426.75063419388607,-1031.7654697257094,-440.30216168332845,134.0
1731821832.1164913,-934.8328727241606,-496.23423547064885,-1034.0692480984144,-476.43333515524864,134.0
1731821832.1299968,-952.7432536119595,-455.66754065128043,-1044.0809602797963,-452.98042253311723,135.0
1731821832.1299968,-928.6358584975824,-401.9102186881937,-1031.4662777292542,-422.4628388946876,135.0
1731821832.1458912,-941.8414452411234,-489.8502262462862,-1033.4783439054154,-479.54119201842695,136.0
1731821832.1458912,-929.1931035909802,-459.5271174055524,-1026.4959506881423,-447.8118807943538,136.0
1731821832.146446,-924.7912413431332,-394.2135045793839,-1021.9482323420234,-403.8493568152189,137.0
1731821832.146446,-922.8951120655984,-447.7913113445975,-1021.2301715505309,-447.1686180019751,137.0
1731821832.1601808,-925.4419839354232,-475.88917971169576,-1028.5454158638604,-464.102885001339,138.0
1731821832.1601808,-939.2010758724064,-406.70477043138817,-1026.7988825845532,-425.5071174586192,138.0
1731821832.1758437,-958.7532728407532,-446.95731365447864,-1045.2926878654398,-451.1029927553609,139.0
1731821832.1758437,-912.3934729900211,-481.4242316461168,-1019.8351888670586,-471.5490258131176,139.0
1731821832.176534,-911.1817454043776,-423.4819616326131,-1019.3527417727746,-430.00621710531414,140.0
1731821832.176534,-917.5059162294492,-401.00516289891675,-1030.9651311351918,-423.85034177824855,140.0
1731821832.1901512,-915.1310797575861,-485.3698260993697,-1025.2543039028533,-473.5984909888357,141.0
1731821832.1901512,-923.1232459628955,-463.7868634550832,-1012.9425532487221,-454.42402391601354,141.0
1731821832.2058897,-921.6609450802207,-402.4412844819017,-1015.4669857188128,-410.4278408372775,142.0
1731821832.2058897,-923.2167434617877,-460.5630696932785,-1017.1835997984745,-456.15559759549797,142.0
1731821832.2064133,-924.4284710474312,-485.9607302923687,-1023.6910257213749,-472.5139200016856,143.0
1731821832.2064133,-924.6154660452157,-415.5496338265948,-1024.1547733158804,-432.85228097159415,143.0
1731821832.220183,-909.5474091237411,-418.41439719265327,-1016.8208295027725,-432.5082101756707,144.0
1731821832.220183,-909.9475784189999,-484.74152290681377,-1011.8131034621038,-487.84003002010286,144.0
1731821832.235831,-920.6549119921401,-440.0721578360535,-1010.3059237799607,-441.66722516715527,145.0
1731821832.235831,-917.7789289262146,-390.2828697259538,-1006.6109026237391,-414.0480639943853,145.0
1731821832.236565,-913.1825918806717,-479.2887487714179,-1010.3321030796506,-465.1201377892867,146.0
1731821832.236565,-920.0490481993183,-451.2394991037436,-1023.2347579267807,-451.4732428509742,146.0
1731821832.2500849,-909.7381440214813,-385.74637107970193,-1017.5201907944866,-408.6102494588122,147.0
1731821832.2500849,-922.2256699735299,-460.22647869726643,-1026.4809910883196,-450.5943663613871,147.0
1731821832.265885,-924.5556276459247,-487.20237707765773,-1025.7330110971816,-469.2564671402797,148.0
1731821832.265885,-919.3721263073385,-399.1987912203185,-1013.3315028441139,-417.77674425020814,148.0
1731821832.2665646,-913.2536499798298,-418.78464728826657,-1009.168994193431,-432.29129597824067,149.0
1731821832.2665646,-920.307101296261,-484.56948750885203,-1011.8131034621038,-469.2901262398809,149.0
1731821832.2803295,-910.224331015721,-426.01387390261516,-1004.3370434506796,-425.1181678632274,150.0
1731821832.2803295,-904.3078092858195,-390.6045011221431,-1009.32606999157,-409.81075734458864,150.0
1731821832.296588,-918.6129266163334,-487.621245872695,-1021.1217144518159,-473.64710968825966,151.0
1731821832.296588,-916.8102948376909,-455.6787603511475,-1017.2696174974553,-445.8147742180154,151.0
1731821832.2966168,-930.5020685754716,-393.4954437878914,-1020.4223531601019,-411.65452802274376,152.0
1731821832.2966168,-919.6900178035721,-453.9771058713086,-1020.0334035647102,-448.7393759833649,152.0
1731821832.3105304,-922.4388442710042,-486.2935813884251,-1010.1563277817331,-461.5560131315142,153.0
1731821832.3105304,-922.0087557760999,-406.4990759338252,-1019.2218452743255,-423.02756378799677,153.0
1731821832.325894,-912.3560739904642,-425.3668712102808,-1014.8686017259024,-427.02925674058497,154.0
1731821832.325894,-913.504223276861,-487.41929127508774,-1009.5018452894874,-465.61006468348205,154.0
1731821832.3264468,-919.7535961028188,-423.1790297362022,-1009.808517085854,-433.47684426419437,155.0
1731821832.3264468,-921.7320031793788,-394.19480507960543,-1014.4833920304663,-409.5975830471143,155.0
1731821832.3415103,-917.7153506269678,-484.92851790459827,-1011.3979745670222,-472.3418846037239,156.0
1731821832.3415103,-920.3594598956406,-451.4900724007748,-1013.1594674461521,-442.7256168546155,156.0
1731821832.3560016,-916.9636307358742,-388.9477254417725,-1010.1002292823978,-410.21840643975884,157.0
1731821832.3560016,-917.2216838328168,-454.10052256984636,-1007.889948408585,-446.00176921579987,157.0
1731821832.3564663,-914.8505872609094,-482.6920577310957,-1006.9774128193967,-463.65035710670054,158.0
1731821832.3564663,-924.5182286463678,-404.15041876165196,-1004.9055082439445,-418.36390854325145,158.0
1731821832.370184,-921.2196368854493,-426.2195684001781,-1002.2277398756705,-428.58505512215197,159.0
1731821832.370184,-910.1196138169616,-483.0697876266204,-994.1682554711588,-466.94894886761904,159.0
1731821832.3858397,-904.277890086174,-424.8919039159082,-1005.4964124369435,-429.07498201634735,160.0
1731821832.3858397,-912.2513567917049,-395.6533660623245,-1010.7584516745992,-414.32481659110636,160.0
1731821832.3863604,-904.2068319870159,-478.3126348829828,-1007.4336806139909,-462.31147292256355,161.0
1731821832.3863604,-918.6465857159346,-456.4903186415322,-1027.9320722711273,-448.2083101896569,161.0
1731821832.4004095,-906.1740193637088,-387.69859885657206,-998.7197137172334,-405.9025618908927,162.0
1731821832.4004095,-929.0472474927083,-456.4267403422855,-1001.9285478792153,-450.16053796652704,162.0
1731821832.4158368,-934.7655545249581,-480.29852175945416,-1016.9255467015319,-464.46565529704094,163.0
1731821832.4158368,-941.4412759458646,-407.78934141853824,-1013.5970357409678,-416.40794086642563,163.0
1731821832.4163766,-972.5310642775148,-445.3379369736649,-1030.0077167465352,-452.19130364246666,164.0
1731821832.4163766,-958.7009142413735,-497.3973443568684,-1014.9770588246174,-482.61912968195975,164.0
1731821832.4300876,-962.5604909956455,-444.6423155819066,-1016.4356198073365,-442.25812936015427,165.0
1731821832.4300876,-968.8173436215147,-411.34224637644365,-1030.1124339452945,-424.1570135746151,165.0
1731821832.446005,-955.2041077828035,-489.0012689563446,-1008.9707794957794,-479.0437853243202,166.0
1731821832.446005,-963.6076629832387,-461.1165748867206,-1013.1258083465509,-453.31327362917364,166.0
1731821832.4464376,-972.287970780395,-396.22557075554505,-1016.9292866014875,-417.971219047904,167.0
1731821832.4464376,-946.067532191053,-454.9420000598766,-988.1844155420549,-451.6639777487144,167.0
1731821832.460076,-946.0151735916734,-475.78820241289213,-990.6490096128546,-463.5568596078083,168.0
1731821832.460076,-971.5512104891241,-414.38278504041955,-1001.4423608849756,-434.1649858560413,168.0
1731821832.4759312,-944.8333652056754,-425.63988390704617,-991.0716183078475,-437.59447411540896,169.0
1731821832.4759312,-945.6898022955284,-496.8438391634263,-994.8900561626069,-483.3484101733193,169.0
1731821832.4765677,-953.0125264087692,-429.28254646388814,-993.0388056845404,-436.1321732327342,170.0
1731821832.4765677,-949.4371820511296,-392.25379700260237,-994.5609449665062,-414.9456399837509,170.0
1731821832.490096,-942.9933344274759,-482.41904503433034,-991.7261008000933,-473.54239248950034,171.0
1731821832.490096,-947.8477245699614,-451.8304032967426,-997.6613220297731,-446.49543600995094,171.0
1731821832.5055604,-937.6527572907507,-382.55623641749844,-989.654196224641,-402.1813614349812,172.0
1731821832.5055604,-941.4150966461748,-448.47571303648874,-997.9193751267157,-453.45912972744554,172.0
1731821832.5208888,-945.3232920998707,-470.59722127439454,-999.5462316074409,-467.50619396101683,173.0
1731821832.5208888,-951.1350966310129,-407.96511671645567,-1003.6077629593201,-428.97026481758803,173.0
1731821832.5216196,-951.3707103282213,-437.2597530693747,-1006.5959430239163,-446.60389310866594,174.0
1731821832.5216196,-955.9558276738971,-497.86483185132965,-1010.2086863811128,-485.09868335258216,174.0
1731821832.5360253,-948.9322955571115,-418.7771674883552,-999.1610219120048,-423.6184679809958,175.0
1731821832.5360253,-949.3025456527248,-403.6567519675009,-1004.0154120544903,-424.302869672887,175.0
1731821832.5366628,-949.0557122556493,-487.09018007898703,-1004.5576975480653,-474.2604532809928,176.0
1731821832.5366628,-956.849663763307,-450.4242009134032,-997.6800215295516,-448.6982370838523,176.0
1731821832.5501091,-949.38482345175,-394.6136738746427,-1005.8442231328227,-408.65512825828046,177.0
1731821832.5501091,-936.0371205098927,-456.505278241355,-999.291918410454,-455.86762529890984,177.0
1731821832.5660791,-943.6590366195887,-483.82150751771405,-998.8954890151508,-471.822038509883,178.0
1731821832.5660791,-946.2470473889261,-402.11217328580096,-1002.8410834684037,-423.06496278755367,178.0
1731821832.566542,-946.5013605859131,-419.6223848783411,-1002.1417221766897,-451.0319346562028,179.0
1731821832.566542,-937.8771512880921,-491.5444009262137,-1005.8330034329556,-481.3849626965821,179.0
1731821832.5800574,-934.1671705320477,-421.83640565210953,-1002.6428687707521,-427.48552453517914,180.0
1731821832.5800574,-940.0724725620821,-397.9160055355169,-996.939521338325,-408.4531736606732,180.0
1731821832.5959964,-943.546839620918,-482.31058793561533,-997.0778976366855,-463.1192913129926,181.0
1731821832.5959964,-940.1510104611516,-445.27809857437387,-999.8304640040733,-428.6561132213101,181.0
1731821832.5966897,-937.2825071951374,-389.086101740133,-995.9671473498456,-401.42590164393187,182.0
1731821832.5966897,-940.6147580556571,-458.5397838172503,-1005.1710411407985,-461.97862182650715,182.0
1731821832.6100793,-927.2333960141987,-482.8079946297221,-995.6268164538778,-473.62093038856983,183.0
1731821832.6100793,-927.1997369145975,-401.8017615894787,-998.3943424210884,-425.0134506644681,183.0
1731821832.6258955,-934.9787288224325,-428.2652936759405,-1013.2417452451773,-451.6527580488473,184.0
1731821832.6258955,-928.5648003984243,-492.3933582161553,-993.996220073197,-478.5314190303907,184.0
1731821832.6265757,-927.4278708118945,-424.64881041878834,-980.4465625337325,-431.9434852823615,185.0
1731821832.6265757,-945.8917568931356,-402.60584007995203,-984.9120030808263,-422.84430869016796,185.0
1731821832.640005,-957.2012143591419,-490.1344586429186,-995.6791750532575,-487.65303502231836,186.0
1731821832.640005,-947.829025070183,-449.06287732953206,-982.4287095102482,-458.2873405702412,186.0
1731821832.6561296,-948.3526110639796,-403.3986988705583,-983.2477476005442,-426.715105144307,187.0
1731821832.6561296,-938.5353736802936,-464.9088334417902,-976.3812912818976,-457.180330183357,187.0
1731821832.656607,-936.407370605506,-486.78350828262046,-985.9666548683308,-465.7035621823743,188.0
1731821832.656607,-937.1740500964224,-431.1562363416888,-979.5976052437909,-406.0484179891646,188.0
1731821832.670108,-938.4269165815786,-473.04685574537143,-988.6967818359844,-447.9988757921383,189.0
1731821832.670108,-937.215188995935,-505.9691950553097,-989.9309488213621,-481.76643249206245,189.0
1731821832.6858456,-942.6567434314638,-434.05091890739277,-993.6259699775837,-445.59412012062967,190.0
1731821832.6858456,-934.9749889224768,-412.1014460674487,-988.3938499395736,-416.99510515946895,190.0
1731821832.6865299,-935.3377592181787,-484.2553359125741,-988.5023070382886,-467.8839238565415,191.0
1731821832.6865299,-937.6303178910166,-447.6417153463699,-984.758667182643,-439.22881039604545,191.0
1731821832.7001312,-941.8788442406803,-389.88644033065066,-985.4056698749773,-406.62436258234084,192.0
1731821832.7001312,-928.7181362966076,-445.79794466821477,-985.615104272496,-450.82998005859554,192.0
