timestamps,TP9,AF7,AF8,TP10,Right AUX
1731740264.7421663,-178.35582888685167,8.205340502783656,11.171081167645752,-264.3136894684285,104.0
1731740264.7421663,-25.872627893462777,-14.978299322538078,-10.740992672741413,36.071335072629154,104.0
1731740264.7559783,-74.47636771760881,-13.332743342034519,1.5595382815226912,-209.23618282098323,105.0
1731740264.7559783,-200.55961492378265,13.998445534147322,29.01040395628661,-347.73963778000325,105.0
1731740264.7720428,-74.40904951840639,-10.84196997154504,5.751966131851077,-7.872489406727254,106.0
1731740264.7720428,-37.672012253664434,-27.80615617055446,-14.005925334058702,-99.9376066159457,106.0
1731740264.7866862,-191.69231212884188,-7.719153508543968,16.810850300826132,-398.0450320839882,107.0
1731740264.7866862,-120.95584436692297,-2.1616621743887663,21.885894540697336,-131.63699864037335,107.0
1731740264.7873104,12.322970353998244,-0.14959599822759628,10.550257775001228,24.94513270445168,108.0
1731740264.7873104,-126.44601750187576,7.401262012310326,29.870580946095288,-312.4349821982905,108.0
1731740264.8016527,-155.40032295882702,29.81074254680425,50.062300806865096,-216.6187453335151,109.0
1731740264.8016527,-18.819176577031612,-9.888295482844114,6.7430396201089025,62.05615996476263,109.0
1731740264.8023324,-93.04871089756489,-36.781916064210236,-11.821823759935796,-214.11301236320287,110.0
1731740264.8023324,-211.08743329904974,-5.64724893309176,19.582116167992353,-347.8593145785853,110.0
1731740264.815905,-58.00958821270615,-4.106410151347518,19.821469765156507,12.48004615213722,111.0
1731740264.815905,-63.53342044726014,-57.60193911753595,-28.2362446654588,-110.41306639183313,111.0
1731740264.8316092,-192.61606741789728,-23.01160442736,9.574143886566162,-374.0236546685919,112.0
1731740264.8316092,-118.24815679900348,16.687433602288365,41.02670251391828,-100.95859930384904,112.0
1731740264.8323252,-22.046710238792002,-28.681292760185897,-4.615036545321345,2.6291496688500047,113.0
1731740264.8323252,-174.55235063191503,-48.97398991975933,-24.58236240874976,-346.3970136959106,113.0
1731740264.8459668,-194.28780269809067,-17.73086568992585,-8.583070398308337,-242.05754483211786,114.0
1731740264.8459668,-37.74307035282254,-29.949118845164776,-15.27749131899327,55.357999144122005,114.0
1731740264.8616357,-94.68304717820138,-48.59252012427896,-31.84898802265525,-207.22037674486637,115.0
1731740264.8616357,-214.36732556018978,-12.88395534735173,0.8788764895871282,-338.1954130930826,115.0
1731740264.8622913,-97.1177220493555,-47.650065335445106,-41.51288950815797,-16.04043090995401,116.0
1731740264.8622913,-93.30676399450749,-78.4444015705958,-66.53282021172345,-127.56424758862704,116.0
1731740264.876041,-231.02857986278832,-49.77058861032128,-34.14902649540454,-405.5547511950135,117.0
1731740264.876041,-166.6312425257638,-52.00704878382385,-37.78046935237944,-147.48669465258718,117.0
1731740264.8917084,-43.91390527971089,-69.31904567871243,-51.01223539561033,-8.384855700656772,118.0
1731740264.8917084,-158.95696781668812,-35.218637882731855,-13.138268544338644,-319.53705221414566,118.0
1731740264.8925188,-169.64934179000556,-5.015205840580165,17.517691392451525,-211.771834990941,119.0
1731740264.8925188,-44.26545587554574,-52.32494028005749,-27.458345474675298,51.86493258550763,119.0
1731740264.9060147,-124.31427452713251,-73.06268553435802,-55.387918343767524,-230.9650015635416,120.0
1731740264.9060147,-242.99251982104033,-37.197044959291816,-26.55702958535403,-355.23065739125013,120.0
1731740264.92138,-81.12216993886977,-42.17859170027077,-23.149980725720525,-2.6815082682296634,121.0
1731740264.92138,-66.82453240826726,-62.01876096520573,-48.62617922388017,-107.46228532679379,121.0
1731740264.9365995,-212.70680997986346,-32.22297801822424,-17.199799896217883,-386.15589012485,122.0
1731740264.9365995,-134.42322410736233,-22.379561334848404,-1.406202383339405,-112.59342806600034,122.0
1731740264.9374473,-28.759830659255385,-55.11116574704647,-37.57103495486081,12.599722950719297,123.0
1731740264.9374473,-179.8218696694821,-49.41155821457505,-31.695652124471962,-339.5230775773525,123.0
1731740264.9515676,-200.21554412785918,-29.866841046139598,-18.96129277534783,-247.09519007243216,124.0
1731740264.9515676,-26.489711386151612,-29.960338545031846,-21.71011924277991,60.40686408430338,124.0
1731740264.9523327,-110.61128108948469,-52.953243472613394,-31.968664821237326,-210.84807970188558,125.0
1731740264.9523327,-223.04763335734606,-21.654020743444562,4.140069250948727,-344.54576321784407,125.0
1731740264.9660406,-79.84686405397952,-26.99833778012544,-12.734359349124134,-1.2416467852890491,126.0
1731740264.9660406,-60.919230378232896,-50.066040706820786,-29.84066174644977,-99.26442462392151,126.0
1731740264.981586,-215.5453940462321,-26.20547898951918,-5.8940823301672935,-390.0790451783687,127.0
1731740264.981586,-141.15878392755985,-18.018837986513972,1.0770911872386932,-121.06804136559367,127.0
1731740264.9823143,-22.746071530506015,-51.5059021897614,-24.664640207774937,5.430334735661745,128.0
1731740264.9823143,-162.1882413784042,-31.284263129346073,-3.2761523611843586,-326.9607536261901,128.0
1731740264.995864,-193.25559031032026,-18.587302779778838,7.977206605486572,-245.78996498789638,129.0
1731740264.995864,-49.347979915328324,-50.60084640048444,-28.95430545695126,38.060961849056184,129.0
1731740265.011569,-75.8900499008596,-36.464024567976594,0.34407079592347145,-190.08415514789522,130.0
1731740265.011569,-205.66831826325506,-8.785024995915592,30.764417035505176,-327.7012538174167,130.0
1731740265.0122712,-83.79993830714375,-37.52241625543684,-5.003986140713096,-10.415621376596391,131.0
1731740265.0122712,-53.90317806135863,-52.538114577531815,-5.6547287330031395,-103.51669087354094,131.0
1731740265.0259087,-183.7936434224248,1.323924584314227,44.029842178337276,-363.2789220958948,132.0
1731740265.0259087,-127.74750268645585,-9.420807988382876,30.15855324268341,-115.9443784262985,132.0
1731740265.0416412,-29.889280445873737,-56.38273173198104,-10.03415158111602,-2.8011850668117404,133.0
1731740265.0416412,-168.25809900648892,-50.148318505845964,2.0382454758509994,-341.54636345338076,133.0
1731740265.0424056,-169.72787968907505,-12.655821450054646,38.457391244359314,-232.90226974058896,134.0
1731740265.0424056,-24.1223547141999,-34.021869896911085,23.232258524745703,52.33242007996887,134.0
1731740265.0559056,-97.51041154470295,-42.66477869451046,20.670427055098116,-203.49169648904353,135.0
1731740265.0559056,-219.30025360174477,-11.346856465563178,48.65235852357,-340.2448782688007,135.0
1731740265.071576,-87.99610605742782,-36.50890336744487,20.666687155142426,-11.833043459802866,136.0
1731740265.071576,-53.274874868802726,-41.90557900350541,30.58490183763206,-90.7486724248156,136.0
1731740265.07227,-168.83404359966516,11.014005369506776,94.2305192835629,-350.8624542430043,137.0
1731740265.07227,-104.72467855922878,6.724340120330453,98.18733343668282,-88.66554814949632,137.0
1731740265.0859473,-16.683693702332675,-55.40661784354597,39.33626773394644,3.508026158437133,138.0
1731740265.0859473,-163.34387046471238,-42.80315499287099,66.98160820640624,-328.61752930656075,138.0
1731740265.1016092,-162.88386277016252,-0.5123662939295173,108.62913411296904,-210.08140021096915,139.0
1731740265.1016092,-2.976960364729166,-36.396706368774176,81.09599063917994,74.83913801331073,139.0
1731740265.102618,-71.63030385132879,-39.627979930490255,75.08971131034195,-189.33991505671293,140.0
1731740265.102618,-210.7284029033035,-29.492851050570607,89.89971513487399,-333.3522426504642,140.0
1731740265.1159132,-86.53380517475307,-62.04120036493987,56.558507029898465,-11.417914564721286,141.0
1731740265.1159132,-44.99099646694958,-55.372958743944764,72.44934194162488,-96.713812854141,141.0
1731740265.1315963,-181.81149644590914,-22.678753331303596,115.63022683002055,-360.6909113265574,142.0
1731740265.1315963,-127.27627529203892,-30.023916844278574,98.54636383242905,-112.99733726121485,142.0
1731740265.1322937,-11.451573664322495,-58.981962201185524,68.39903028961271,10.703593673184514,143.0
1731740265.1322937,-143.87769119534642,-30.270750241354108,105.73445154726505,-312.9286489924416,143.0
1731740265.1459832,-149.12851073313504,-4.8095113430172205,139.07191975228488,-199.63585963472724,144.0
1731740265.1459832,-13.097129644826055,-30.813035734929144,107.88115412183106,76.87738348916173,144.0
1731740265.1616488,-86.10371667984873,-46.928264643996954,101.66918029543012,-201.25897621549666,145.0
1731740265.1616488,-216.09141943976283,-32.391273516230285,108.63287401292473,-328.7858248045668,145.0
1731740265.1623707,-51.44980369042605,-25.450019198469818,112.71310486458242,25.3827009992674,146.0
1731740265.1623707,-27.477044974453747,-30.99255093280226,111.18722568266094,-75.68809530325234,146.0
1731740265.17598,-189.0519427601248,-11.881662159226835,133.8024007147178,-358.88827954791486,147.0
1731740265.17598,-111.09746808372438,-11.466533264145255,121.74122335761786,-98.57628303207457,147.0
1731740265.1916444,1.6567756803706288,-40.443278120830655,97.96293943934143,27.851034970022738,148.0
1731740265.1916444,-142.24709481466562,-37.40273945685476,106.4973911382258,-315.83455125801265,148.0
1731740265.1922932,-183.827302522026,-34.29114269372076,104.58630226086825,-234.02423972729594,149.0
1731740265.1922932,-6.234413226135075,-35.596367778256536,101.80007679387927,69.76783367339522,149.0
1731740265.2058613,-68.27187369111925,-22.50671793334186,117.73579050507396,-182.4584991382435,150.0
1731740265.2058613,-190.14773344714195,-9.64146208576858,128.43938417825848,-315.625116860494,150.0
1731740265.2215507,-52.575513577088714,-24.851635205559433,111.89780667424202,27.933312769047916,151.0
1731740265.2215507,-31.299222729168832,-37.94876485038549,100.59956890810281,-79.72344735544175,151.0
1731740265.222276,-170.4496803805232,-1.0396921876817942,139.13175815157592,-345.2002457100898,152.0
1731740265.222276,-111.18348578270525,-2.7226471677422523,114.38484014477581,-97.22617914807051,152.0
1731740265.235931,-17.26337819546461,-60.86313187889755,55.48141584265977,4.588857245631516,153.0
1731740265.235931,-167.05385122075677,-51.81257398612797,75.36272400710732,-339.6427543759346,153.0
1731740265.251542,-177.2675179997459,-24.630981108173728,97.47301254514605,-220.74385498464108,154.0
1731740265.251542,-16.332143106497824,-47.343393539078534,78.7772526666522,68.15219689253718,154.0
1731740265.2522748,-67.72958819754422,-38.31153514608741,99.27938422374427,-186.17221979424357,155.0
1731740265.2522748,-162.89882236998528,17.573789891786873,162.5921505736187,-282.03707535844296,155.0
1731740265.2659135,-35.207418182864785,-4.401862247847021,133.0245015239343,41.288495510816574,156.0
1731740265.2659135,-13.459899940527976,-16.384501705877483,128.6562983756885,-59.05676020029932,156.0
1731740265.2816477,-180.8653017571196,-3.1564755626022816,145.69154267385602,-350.62684054579586,157.0
1731740265.2816477,-92.70090020168573,12.233212755061686,145.6616234742105,-71.11793755739927,157.0
1731740265.2823367,23.060223126783967,-5.018945740535855,129.11630607023835,47.51542893704027,158.0
1731740265.2823367,-119.67305868212134,1.5969372810795903,140.9942283295095,-289.610372768715,158.0
1731740265.2959335,-128.2411694806069,19.615775267593563,155.87155035324395,-173.80063074082136,159.0
1731740265.2959335,4.136329350993037,-5.579930733889341,119.74785668123513,87.8577297590673,159.0
1731740265.3116004,-72.74479403812438,-9.503085787408054,115.36843383312225,-175.9361136155203,160.0
1731740265.3116004,-175.50602512061596,22.315983035601676,147.98036144673824,-285.96771021187305,160.0
1731740265.3122988,-59.86457859072834,-14.170480932109058,97.1177220493555,23.434213122352958,161.0
1731740265.3122988,-26.254097688943148,-13.28038474265486,99.52247772086412,-68.87773748394102,161.0
1731740265.3259368,-135.30210059694946,46.65525194723159,159.90690240543336,-310.1424235254526,162.0
1731740265.3259368,-82.46479402296245,34.63895338959992,149.12851073313504,-53.24495566915721,162.0
1731740265.341679,3.6052635572850704,-19.937406663782895,91.11144272051752,31.33662172872573,163.0
1731740265.341679,-140.9194303303957,-8.942100794054568,104.45166586246341,-301.83610572386533,163.0
1731740265.342302,-145.51950727589428,6.544824922457337,112.54480936657637,-188.37128096818924,164.0
1731740265.342302,2.217760673724115,-7.943547505885363,93.1534280963242,99.48133882135153,164.0
1731740265.355969,-34.57911499030888,19.533497468568385,127.46327028982341,-140.75487473234534,165.0
1731740265.355969,-155.72569425497204,43.296821787022054,148.17109634447843,-267.7618772275746,165.0
1731740265.3716483,-33.12055400758982,15.180253920145333,102.96692558005452,53.25617536902428,166.0
1731740265.3716483,-30.756937235593796,-18.07119658589363,69.8875104719773,-70.14182366896421,166.0
1731740265.3723345,-178.0828161900863,13.71421313751489,99.43272012192756,-339.1303880820051,167.0
1731740265.3723345,-99.68703331891447,13.796490936540067,105.80550964642316,-69.48734117671847,167.0
1731740265.385959,3.736160055734217,-10.961646770127118,70.16052316874266,29.37691415194422,168.0
1731740265.385959,-142.55750651098788,-10.03415158111602,80.89403604157269,-309.1812692368403,168.0
1731740265.4016185,-153.23866078443825,8.986979593522847,98.06017683818936,-190.89945333823562,169.0
1731740265.4016185,2.7637860672548413,2.0270257759839296,79.35693715978414,96.46697945706546,169.0
1731740265.4023683,-57.50470171868801,7.135729115456343,83.49700641073287,-168.90884159877896,170.0
1731740265.4023683,-180.21829906478524,33.50576370302588,106.11218144278973,-289.15036507416517,170.0
1731740265.4160154,-51.715336587280035,0.7405001912266016,64.5469333352521,36.30320886988193,171.0
1731740265.4160154,-26.250357788987458,-5.168541738763452,55.59735274128616,-69.02733348216861,171.0
1731740265.4317372,-148.38801054190844,42.30574829876423,121.74870315752923,-316.9228621451184,172.0
1731740265.4317372,-105.7194919474423,33.165432807058096,102.84724878147244,-70.73272786196321,172.0
1731740265.4324496,0.6694420920684934,3.21631396189332,69.34148507844657,31.572235425934196,173.0
1731740265.4324496,-121.88333955593407,26.676706383936107,89.98199293389916,-284.75224272627383,173.0
1731740265.446031,-132.33262003213167,45.80255475733429,109.22377820592374,-171.50059226807207,174.0
1731740265.446031,-11.69092726148665,-1.8325509782880545,53.85081946197897,70.67662936262786,174.0
1731740265.4617417,-87.22942656651139,-17.214759496040642,41.88313960377127,-201.37491311412305,175.0
1731740265.4617417,-167.21466691885144,41.9093189034611,92.22219300735742,-279.3256478905678,175.0
1731740265.4624465,-21.923293540254235,40.15904572419822,89.56686403881758,64.15424383990467,176.0
1731740265.4624465,-28.56161596160382,4.506579446606338,43.96626387909055,-76.43981519434601,176.0
1731740265.476021,-179.88170806877315,23.097622126340866,69.63693717494607,-351.0569290407002,177.0
1731740265.476021,-79.08392446301877,54.00041546020657,102.46577898599207,-51.86867248546332,177.0
1731740265.491639,-5.751966131851077,0.9013158893212676,45.43230466172099,19.896267764270306,178.0
1731740265.491639,-135.19364349823445,15.041877621784806,67.32567900232971,-305.20201568398625,178.0
1731740265.4923298,-132.22042303346097,45.95963055547327,95.76013836544007,-179.46657917369157,179.0
1731740265.4923298,10.127649080008268,33.5356829026714,70.68036926258355,94.90744117554277,179.0
1731740265.5059383,-86.35802987683564,3.7212004559114575,41.35581371001899,-198.0202228538692,180.0
1731740265.5059383,-179.18608667701483,39.88229312747717,71.1441168570891,-294.1132123153657,180.0
1731740265.52168,-46.068087654188275,27.248911077156663,41.07532121334225,32.451111915521324,181.0
1731740265.52168,-44.62822617124766,2.6441092686727643,22.461839133873582,-89.1180760441348,181.0
1731740265.5223565,-193.58844140637666,23.37437472306192,48.869272721000016,-367.871519241482,182.0
1731740265.5223565,-117.30944191012532,26.676706383936107,42.36932659801096,-93.81165048852563,182.0
1731740265.5360303,14.49959212820977,31.938745621591806,41.78590220492333,31.85272792261094,183.0
1731740265.5360303,-125.3203076152131,53.51422846596688,65.90451701916754,-295.882184994407,183.0
1731740265.551699,-124.92013831995428,81.65323573257774,97.21495944820344,-167.9364676102996,184.0
1731740265.551699,22.94802612811327,62.546086858958006,66.80209300853312,103.98043846804649,184.0
1731740265.5523803,-78.94928806461394,43.01258939038962,42.28330889903009,-191.62125402968377,185.0
1731740265.5523803,-193.6819389052689,58.162924110889435,56.64078482892364,-298.08498606830835,185.0
1731740265.5659835,-46.39719885028899,43.236983387731016,41.39695260953158,32.002323920838535,186.0
1731740265.5659835,-33.70023850072175,27.458345474675298,32.028503220528364,-83.13797601498663,186.0
1731740265.581756,-173.59119634330273,51.60313958860934,48.910411620512605,-343.36395483184606,187.0
1731740265.581756,-122.4667639490217,25.857668293640018,20.767664453946054,-95.53200446814299,187.0
1731740265.5823843,-18.415267381817102,12.551104251295328,12.44638705253601,5.587410533800721,188.0
1731740265.5823843,-155.63967655599117,32.57452861405909,35.88060017488897,-316.481553950347,188.0
1731740265.596068,-168.10476310830563,30.801816035062075,32.32021541707218,-212.8003074787557,189.0
1731740265.596068,-6.664501721039414,37.4251788565889,29.141300454735756,81.19322803802788,189.0
1731740265.6117108,-90.12036923225969,21.74751824233681,19.36894187051803,-205.25692926812917,190.0
1731740265.6117108,-206.78280845005065,31.987364321015775,35.03164288494736,-310.79316611774266,190.0
1731740265.6123767,-12.300530954264104,78.11903027445078,76.77266629040241,74.8503577131778,191.0
1731740265.6123767,-45.701577458530664,31.220684830099344,15.988072310574353,-93.49749889224768,191.0
1731740265.6259856,-211.15475149825215,23.31079642381519,16.597676003351808,-384.68984934221953,192.0
1731740265.6259856,-107.91107332147658,56.124678635038435,53.88821846153587,-76.49591369368136,192.0
1731740265.6416128,-34.55293569061905,3.107856863178313,-8.590550198219717,-10.748472472652793,193.0
1731740265.6416128,-170.95830677449703,8.811204295605421,4.543978446163237,-334.7584450338036,193.0
1731740265.6423707,-140.78479393199086,70.91972285974771,68.36163129005581,-183.84600202180445,194.0
1731740265.6423707,-42.047695201821625,-8.0781839042902,-14.320076930336654,43.655852182768285,194.0
1731740265.65604,-82.90984211768955,23.69226621929556,16.212466307915747,-201.28889541514218,195.0
1731740265.65604,-205.657098563388,51.41988449078053,37.03248936124146,-314.01695987954736,195.0
1731740265.6717603,-105.69331264775246,-11.455313564278185,-33.969511297531426,-21.75499804224819,196.0
1731740265.6717603,-73.18610223289579,-16.9342669993639,-41.78964210487902,-128.99288937170058,196.0
1731740265.672466,-170.08691008482128,63.60073864646256,43.76430928148329,-346.32595559675246,197.0
1731740265.672466,-105.12858775444329,55.84792603831738,36.018976473249495,-72.24364744406193,197.0
1731740265.6860735,-18.602262379601598,11.593689862638712,-18.47510578110814,4.738453243859112,198.0
1731740265.6860735,-141.25976122636348,65.02564052958041,27.166633278131485,-315.06039196718484,198.0
1731740265.701639,-145.71024217363447,49.80424770992249,40.36848012171686,-185.383100903593,199.0
1731740265.701639,-71.9968140469864,-38.15445934794843,-62.72560205683112,16.253605207428336,199.0
1731740265.7024226,-125.99348960723728,-24.840415505692363,-49.733189610764384,-247.02039207331836,200.0
1731740265.7024226,-175.48358572088182,59.93189678993076,40.001969926059246,-288.6903573796153,200.0
1731740265.7166843,-499.8301492780447,-1061.9296328183264,-1100.779713558033,-374.98106905724853,0.0
1731740265.7173843,-499.14200768619776,-1095.173603524454,-1122.3252772027627,-501.008217764087,101.0
1731740265.7173843,-608.8444930864498,-1015.524954168126,-1044.1164893293753,-734.3667552992702,101.0
1731740265.7310758,-588.495697427541,-1084.4101714519784,-1125.0554041704163,-515.4030926935375,102.0
1731740265.7310758,-470.9244625205174,-1091.8712718635798,-1122.0821837056428,-407.6303956704214,102.0
1731740265.746716,-601.6264861719683,-1074.6752118673176,-1099.6166046718135,-720.3346506655216,103.0
1731740265.746716,-607.5467478018254,-1059.5435766465962,-1090.7904407763854,-609.8729655742645,103.0
1731740265.7474077,-442.59472035616636,-1059.5921953460202,-1093.629024842754,-314.5555054731667,104.0
1731740265.7474077,-550.1093642823398,-1092.013388061896,-1113.843184103258,-623.3179059149697,104.0
1731740265.76108,-637.1218766514212,-1051.2709179446101,-1074.0992672741413,-701.2836002912372,105.0
1731740265.76108,-508.8620076710358,-1083.3031610650942,-1101.0976050542668,-380.5497800912708,105.0
1731740265.7767165,-521.8656398169696,-1106.3372048921883,-1140.4750116877258,-526.4395374627784,106.0
1731740265.7767165,-675.3847930980846,-1094.122691636905,-1120.8068778207526,-803.8503565760329,106.0
1731740265.7774107,-578.6223615445197,-1083.6173126613721,-1103.5248001255095,-502.5340969460085,107.0
1731740265.7774107,-409.2722117509693,-1031.950594773516,-1050.874488549307,-342.73565163929015,107.0
1731740265.7910619,-554.9562746249139,-1028.8726571099833,-1025.895696745254,-673.8177750166506,108.0
1731740265.7910619,-613.7213226286694,-1061.1068548280746,-1083.112426167354,-608.7622152874246,108.0
1731740265.8067138,-442.86025325302035,-1053.03241082374,-1075.39327265881,-316.6685489481315,109.0
1731740265.8067138,-539.0317806135863,-1082.5477012740448,-1103.2742268284783,-608.3657858921215,109.0
1731740265.80735,-642.5372517872602,-1053.4138806192204,-1074.9781437637284,-699.2042159158736,110.0
1731740265.80735,-494.9383601360023,-1070.4192057177424,-1090.311733582057,-370.19399711396545,110.0
1731740265.820908,-492.55230396427214,-1071.907685900107,-1100.0317335668951,-494.8373828371987,111.0
1731740265.820908,-622.9102568197995,-1036.509532819502,-1066.4960506642237,-744.3148891814053,111.0
1731740265.836588,-571.0378444343805,-1068.8596674362198,-1095.9589825151488,-493.8575290488079,112.0
1731740265.836588,-450.9870558567345,-1082.5290017742664,-1113.7796058040112,-396.46679430268705,112.0
1731740265.837391,-590.5638621030375,-1083.557474262081,-1080.4570971988142,-714.9342351295054,113.0
1731740265.837391,-608.612619289197,-1057.7035458683968,-1082.9291710695252,-606.8922653095797,113.0
1731740265.8509123,-453.743362124078,-1089.9714026860893,-1099.0369201786816,-330.65577478241175,114.0
1731740265.8509123,-541.2607609871775,-1079.4772434104234,-1097.6643768949434,-607.6215458009392,114.0
1731740265.8669336,-621.6760898344219,-1036.726447016932,-1052.7219991274178,-676.6077403835952,115.0
1731740265.8669336,-485.0089257536456,-1046.8316566972062,-1061.7127186208963,-356.78645577281713,115.0
1731740265.8674505,-520.6090334318578,-1117.545685059391,-1139.8990670945495,-522.3667864110321,116.0
1731740265.8674505,-630.6032310286537,-1051.6262084404007,-1065.6171741746366,-743.8062627874315,116.0
1731740265.8808832,-546.2123885285109,-1053.5447771176696,-1067.4759044526145,-474.02483958378434,117.0
1731740265.8808832,-442.30300815962255,-1068.0518490457907,-1084.017481956631,-374.4051244640723,117.0
1731740265.896669,-584.1910725785419,-1056.2973434850574,-1070.1910718204454,-699.5520266117528,118.0
1731740265.896669,-588.5069171274081,-1055.1379744987935,-1062.4083400126547,-581.1617536144331,118.0
1731740265.8973868,-446.37575921136886,-1065.587254974991,-1090.2967739822343,-310.65478981938213,119.0
1731740265.8973868,-550.6105108764023,-1095.038967126049,-1106.980467684567,-617.1096719885245,119.0
1731740265.910905,-636.6394295571372,-1058.2233919622377,-1066.009863669984,-687.1131193591282,120.0
1731740265.910905,-477.031719148159,-1058.4552657594904,-1079.6044000089169,-352.36589402519166,120.0
1731740265.9267435,-481.2690257979557,-1078.0486016273499,-1094.4443230330944,-480.87259640265256,121.0
1731740265.9267435,-645.2598989550024,-1069.8507409244776,-1090.1957966834307,-770.3146736733615,121.0
1731740265.9274788,-548.1646163053811,-1061.4920645235106,-1083.6696712607518,-472.4204225027934,122.0
1731740265.9274788,-462.12821782473475,-1086.6615912253037,-1112.8109717154875,-397.42420869134367,122.0
1731740265.9409876,-577.6873865555972,-1066.42125266511,-1076.178651649505,-700.5692793997005,123.0
1731740265.9409876,-582.1790064023808,-1052.8080168263987,-1065.5610756753013,-572.986332311295,123.0
1731740265.9566534,-464.35345829837024,-1089.7170894891024,-1116.2142806751654,-340.8731814613566,124.0
1731740265.9566534,-534.2484485702589,-1081.773541983217,-1107.3918566796929,-604.6632849359885,124.0
1731740265.957332,-646.0415380457416,-1077.6409525321797,-1096.3928109100088,-705.2927730437368,125.0
1731740265.957332,-491.28447787929326,-1065.7779898727313,-1085.812633935362,-371.9554899930954,125.0
1731740265.9709368,-496.66619391553104,-1081.6987439841032,-1105.3498713038862,-500.043323575519,126.0
1731740265.9709368,-641.2395065026358,-1067.2028917558491,-1084.451310351491,-764.760922239162,126.0
1731740265.9867172,-550.6366901760921,-1062.475658211857,-1084.9487170455977,-476.5642316536978,127.0
1731740265.9867172,-478.69223472848535,-1100.8507716571912,-1130.4408601066098,-422.2683640969917,127.0
1731740265.9874723,-606.4247778151184,-1082.9216912696138,-1107.3133187806234,-728.4726729691029,128.0
1731740265.9874723,-607.7000837000087,-1074.1478859735653,-1105.7051617996767,-611.9373903498054,128.0
1731740266.0011556,-468.5571058485657,-1097.8064930932596,-1130.6764738038182,-342.85532843787223,129.0
1731740266.0011556,-550.3973365789279,-1090.360352281481,-1122.7217065980658,-631.8373980140314,129.0
1731740266.0169873,-631.3138120202348,-1047.160767893307,-1075.236196860671,-698.6507107224315,130.0
1731740266.0169873,-501.2363516613841,-1068.9830841347575,-1104.9197828089818,-377.9916885215789,130.0
1731740266.0174146,-512.5121500277892,-1104.9721414083615,-1136.529417234473,-528.2272096415982,131.0
1731740266.0174146,-661.0609762677923,-1076.2571895485744,-1101.5239536492154,-792.4623612109572,131.0
1731740266.047645,-584.950272269547,-1090.7119028773159,-1126.9552733479068,-512.6879253257066,132.0
1731740266.047645,-469.90720973256975,-1075.4082322586328,-1129.3749886192381,-415.17377388104796,132.0
1731740266.0486495,-611.1707108588889,-1063.3395751016214,-1112.0181129248813,-743.0732423961163,133.0
1731740266.0486495,-617.9324499787763,-1068.83348813653,-1116.977220266126,-621.5713726356626,133.0
1731740266.0488188,-470.12786382995546,-1078.6208063205704,-1131.8433225899935,-359.0864942455664,134.0
1731740266.0488188,-569.4857859527692,-1083.6734111607075,-1127.7668316382915,-742.8264089990407,134.0
1731740266.0611236,-696.7732809446752,-1091.119551972486,-1142.6965122614056,-863.0903718741611,135.0
1731740266.0611236,-525.09317347873,-1078.7479629190639,-1125.7136265626177,-498.2818306963891,135.0
1731740266.0767403,-503.84680183045566,-1080.8535265941173,-1123.866115984507,-641.1310494039208,136.0
1731740266.0767403,-658.5028846981004,-1090.685723577626,-1126.7458389503881,-910.8301948085427,136.0
1731740266.0776627,-548.7966593978927,-1065.0973280807957,-1110.2229609461501,-503.77574373129755,137.0
1731740266.0776627,-454.37914511654526,-1087.5105485152453,-1140.411433388479,-347.3469482846558,137.0
1731740266.0911033,-577.5714496569708,-1089.058867096901,-1135.0783360516652,-604.7119036354125,138.0
1731740266.0911033,-563.5917036226019,-1064.6859390856698,-1102.915196432732,-548.2169749047607,138.0
1731740266.1067374,-425.7240316560492,-1073.6056004799902,-1115.6458158819005,-369.2216231254861,139.0
1731740266.1067374,-541.773127281107,-1094.0553734377027,-1130.6502945041284,-698.8339658202603,139.0
1731740266.1074498,-623.8714111084118,-1046.9999521952122,-1081.9081783816218,-767.2928345091641,140.0
1731740266.1074498,-502.7958899429068,-1066.757843661122,-1112.0181129248813,-460.7107957415283,140.0
1731740266.1210215,-530.8900184100494,-1111.0494788363576,-1156.9978896919638,-599.4386446978897,141.0
1731740266.1210215,-638.0942506399006,-1065.9724646704271,-1112.9156889142469,-807.9642465272918,141.0
1731740266.136918,-528.9415305331349,-1047.643214987591,-1088.0977128082886,-479.87778301443905,142.0
1731740266.136918,-444.0196222392842,-1076.7770356424153,-1116.049725077115,-393.13080354221165,142.0
1731740266.1376524,-538.8934043152258,-1032.4741807673126,-1067.7863161489367,-660.5074710743502,143.0
1731740266.1376524,-564.6351357102394,-1031.5915643777698,-1072.1395596973598,-546.754674022086,143.0
1731740266.1512904,-450.0558207677677,-1082.906731669791,-1119.3520567379892,-321.51171939074993,144.0
1731740266.1512904,-517.097267373465,-1077.6633919319138,-1108.4053695676848,-594.7899490529671,144.0
1731740266.1673493,-614.1027924241498,-1059.352841748856,-1087.1365585196763,-665.2534041181207,145.0
1731740266.1673493,-482.3012381857261,-1071.197104908526,-1099.863438068889,-338.7077793870121,145.0
1731740266.167377,-500.70902576763183,-1103.158289929852,-1137.8122029192746,-488.65532821044326,146.0
1731740266.167377,-605.0372749315575,-1056.3646616842598,-1080.060667803511,-696.0253009535372,146.0
1731740266.1811476,-519.5843008439988,-1044.374542426318,-1069.02422303427,-401.4894799431786,147.0
1731740266.1811476,-453.90791772212833,-1084.6607447490096,-1113.9217220023274,-347.9378524776548,147.0
1731740266.197451,-563.8422769196332,-1064.4802445881069,-1084.5410679504275,-650.8099104892462,148.0
1731740266.197451,-576.8346893656999,-1060.8787209307775,-1086.4072780283168,-529.1060861311853,148.0
1731740266.1974864,-444.2215768368915,-1082.895511969924,-1102.0924184424803,-271.44567868392915,149.0
1731740266.1974864,-525.4970826739445,-1087.4731495156884,-1105.0282399076968,-562.9484408302233,149.0
1731740266.2111163,-605.067194131203,-1057.725985268131,-1077.491356533952,-618.4111571731046,150.0
1731740266.2111163,-485.84666334372014,-1077.117366538383,-1099.3622914748266,-306.72041506599635,150.0
1731740266.2272513,-475.9658476607874,-1092.7501483531669,-1107.5003137784079,-443.7316499426961,151.0
1731740266.2272513,-603.571234148927,-1052.8790749255568,-1070.7857159134,-697.173450239934,151.0
1731740266.2275555,-530.6618845127523,-1058.6123415576294,-1081.8595596821979,-423.76806397922337,152.0
1731740266.2275555,-463.12677111290395,-1121.8054311089218,-1141.1070547802374,-382.1130582727492,152.0
1731740266.2574356,-590.7770364005119,-1083.7444692598656,-1101.7782668462023,-692.7940273918211,153.0
1731740266.2574356,-565.8992218952626,-1036.5020530195907,-1059.1022684518248,-547.8055859096348,153.0
1731740266.2582943,-450.426070863381,-1076.6274396441877,-1091.8899713633582,-316.1113038547337,154.0
1731740266.2582943,-503.21475873794407,-1058.2607909617946,-1063.0964816045016,-574.1232618978247,154.0
1731740266.2596538,-584.9540121695027,-1022.7504408825189,-1030.589271189645,-637.2191140502691,155.0
1731740266.2596538,-456.1705571953207,-1028.1919953180477,-1043.6228225352243,-329.5263249957934,155.0
1731740266.2711637,-466.8554513687268,-1063.971618194133,-1070.3219683188945,-477.80213853903115,156.0
1731740266.2711637,-591.5661552911624,-1030.503253490664,-1035.5633381307125,-718.629256285727,156.0
1731740266.2865863,-523.5972134964541,-1031.4606678793207,-1039.2359198872,-450.7776214592159,157.0
1731740266.2865863,-454.442723415792,-1069.3608140302822,-1082.4355042753741,-404.83295050356537,157.0
1731740266.2874217,-569.657821350731,-1060.9310795301571,-1056.3571818843484,-711.81515856646,158.0
1731740266.2874217,-580.3726347237825,-1043.0693173417822,-1032.492880267091,-587.3251087414101,158.0
1731740266.3016868,-455.08972610812634,-1074.5630148686469,-1076.2908486481756,-339.77365087438375,159.0
1731740266.3016868,-538.4259168207645,-1093.1877166479826,-1092.7912872526795,-635.435181771405,159.0
1731740266.3173282,-599.2553896000609,-1046.6072626998648,-1044.1015297295526,-676.3721266863868,160.0
1731740266.3173282,-475.79381226282567,-1052.8790749255568,-1059.6744731450453,-364.6140663800761,160.0
1731740266.3173563,-492.58222316391766,-1075.9617374520749,-1084.0735804559663,-510.34300805348903,161.0
1731740266.3173563,-610.5835465658456,-1052.4938652301207,-1055.4259467953816,-748.6793524296954,161.0
1731740266.3309655,-536.6606840416789,-1051.9254004368559,-1047.9124877844006,-461.39145753346384,162.0
1731740266.3309655,-439.7224771901965,-1070.557582016103,-1070.5538421161473,-392.0686719547957,162.0
1731740266.3477497,-573.106009109877,-1061.6977590210736,-1060.0559429405257,-716.6396295093,163.0
1731740266.3477497,-577.5864092567936,-1048.1705408813432,-1048.825023373589,-584.4827847750857,163.0
1731740266.3477888,-456.9260169863701,-1078.504869421944,-1082.3233072767034,-334.8295031329617,164.0
1731740266.3477888,-531.8810918983072,-1071.24572360795,-1067.2215912556276,-612.1692641470581,164.0
1731740266.3611133,-626.463161777705,-1052.8902946254238,-1052.1497944341972,-683.2385830050334,165.0
1731740266.3611133,-497.5675098048523,-1073.1605523852631,-1077.8242076300085,-369.2552822250873,165.0
1731740266.3771088,-498.3154897959903,-1086.8111872235313,-1096.7630610056221,-516.0987140852958,166.0
1731740266.3771088,-641.7892717961222,-1068.2276243437082,-1072.6594057912007,-767.980976101011,166.0
1731740266.3774393,-558.4231618838385,-1072.7454234901816,-1081.3322337884456,-484.2721654623747,167.0
1731740266.3774393,-465.4081100858748,-1097.0585131021217,-1104.183022517711,-413.07195010595024,167.0
1731740266.3909948,-584.2845700774342,-1070.2359506199136,-1075.1576589616016,-716.3853163123131,168.0
1731740266.3909948,-573.6819537030533,-1048.9895789716393,-1046.4988056011498,-575.5481637809426,168.0
1731740266.4068928,-467.3341585630551,-1081.556627785787,-1092.0208678618073,-341.21351235732436,169.0
1731740266.4068928,-527.6550049483776,-1073.983330375515,-1069.8956197239459,-613.5717266304418,169.0
1731740266.4074748,-610.5237081665546,-1040.8104177685454,-1043.241352739744,-672.7070247298107,170.0
1731740266.4074748,-499.22054558526725,-1065.3628609776497,-1063.8856004951522,-370.2426158133894,170.0
1731740266.4210477,-495.6526810275391,-1089.3917181929573,-1089.0775665966794,-520.5417152326554,171.0
1731740266.4210477,-635.5847777696326,-1062.2662238143384,-1059.3004831494763,-766.847786414437,171.0
1731740266.436812,-541.5113342842087,-1057.8232226669788,-1049.041937571019,-476.2575598573312,172.0
1731740266.436812,-458.34343906957656,-1082.0839536795393,-1075.3409140594304,-418.8239162378013,172.0
1731740266.437573,-576.15776747372,-1066.3090556664392,-1052.2171126333997,-720.3944890648127,173.0
1731740266.437573,-578.9552126405761,-1047.486139189452,-1045.2982977153733,-586.1769594550133,173.0
1731740266.4513447,-464.41703659761697,-1081.6015065852553,-1084.6757043488324,-345.8360287025571,174.0
1731740266.4513447,-533.089079583995,-1083.9389440575615,-1083.6995904603973,-627.9591217599809,174.0
1731740266.46703,-614.1289717238396,-1053.9187671132386,-1050.2536651566625,-681.8847392210737,175.0
1731740266.46703,-486.7068403335288,-1071.6122338036075,-1074.2974819717929,-371.0242549041286,175.0
1731740266.467426,-504.14225392695516,-1099.672703171149,-1096.149717412889,-514.4269788051024,176.0
1731740266.467426,-630.9884407240897,-1078.7891018185765,-1066.0734419692308,-761.9036386730149,176.0
1731740266.4811475,-556.366216908209,-1076.2833688482642,-1083.0712872678414,-479.4850935190916,177.0
1731740266.4811475,-473.0861246949062,-1105.1366970064119,-1110.8924030382186,-417.6757669514045,177.0
1731740266.4966183,-588.2600837303326,-1076.0066162515432,-1080.9732033926994,-715.5438388222829,178.0
1731740266.4966183,-581.8012765068561,-1063.5003907997161,-1057.8157428670675,-568.644308462739,178.0
1731740266.4993775,-462.0272405259311,-1091.9011910632253,-1093.2251156475395,-329.76193869300187,179.0
1731740266.4993775,-524.9061784809455,-1084.4587901514024,-1082.6823376724496,-600.1567054893821,179.0
1731740266.5109076,-605.2093103295192,-1047.6282553877681,-1044.7560122217983,-654.2992371479049,180.0
1731740266.5109076,-489.044277805835,-1078.5796674210578,-1074.4807370696217,-347.33572858478874,180.0
1731740266.5267372,-489.69128049816936,-1094.0478936377913,-1089.8629455873743,-487.7502724211663,181.0
1731740266.5267372,-629.4737812420353,-1072.2255773963407,-1070.0452157221735,-742.9311261978,181.0
1731740266.527428,-536.0548202488571,-1064.7270779851824,-1065.022530081682,-445.4258246226236,182.0
1731740266.527428,-462.86871801596135,-1092.9820221504197,-1097.8887708922848,-401.90834873821586,182.0
1731740266.5411642,-596.3120883349329,-1082.3831456759945,-1087.9331572102383,-717.6793216969818,183.0
1731740266.5411642,-585.2419844660908,-1058.8554350547493,-1065.8153888722882,-572.238352320157,183.0
1731740266.5566456,-457.445863080211,-1090.6221452783793,-1092.940883250907,-332.2302726637572,184.0
1731740266.5566456,-540.7895335927606,-1095.0576666258276,-1088.1612911075354,-613.4483099319041,184.0
1731740266.557457,-623.7666939096525,-1063.9342191945761,-1059.797889843583,-671.6523729423061,185.0
1731740266.557457,-497.2832774082199,-1081.6688247844577,-1083.9875627569854,-362.59826030395925,185.0
1731740266.5711005,-505.54845631029457,-1104.5495327133685,-1101.3556581512094,-508.3159822775051,186.0
1731740266.5711005,-628.98385434784,-1077.902745529078,-1066.2903561666608,-749.2702566226944,186.0
1731740266.5869875,-540.2248086994514,-1075.4194519584998,-1068.422099141404,-453.3731120284647,187.0
1731740266.5869875,-478.6062170295045,-1106.3596442919225,-1102.4065700387582,-419.5008381297812,187.0
1731740266.5873353,-602.8830925570801,-1093.8646385399625,-1083.1199059672654,-732.029317826964,188.0
1731740266.5873353,-590.6124808024615,-1070.3780668182299,-1074.4134188704193,-583.9704184811562,188.0
1731740266.600936,-472.3306649038568,-1098.4347962858155,-1108.5774049656466,-344.0221772240475,189.0
1731740266.600936,-537.539560531266,-1090.0162814855576,-1089.6273318901658,-619.394750861451,189.0
1731740266.6167388,-615.9802222019061,-1059.0835689520463,-1056.2674242854118,-664.8345353230834,190.0
1731740266.6167388,-501.5430234577507,-1088.2547886064276,-1087.7760814120993,-362.9236316001043,190.0
1731740266.6174448,-521.2186371246353,-1115.5223991833627,-1117.9346346547827,-524.0983600905165,191.0
1731740266.6174448,-643.7601990727708,-1079.0321953156963,-1079.8699329057708,-762.2664089687169,191.0
1731740266.633806,-568.6143892630935,-1077.1098867384717,-1087.3983515165746,-479.77306581567973,192.0
1731740266.633806,-500.21535897348076,-1117.9159351550043,-1128.0996827343479,-438.9857168989256,192.0
1731740266.6467364,-615.9241237025708,-1099.5305869728327,-1097.9560890914872,-740.5375902261585,193.0
1731740266.6467364,-590.0440160091966,-1067.0420760577545,-1070.1162738213316,-575.4397066822276,193.0
1731740266.6480815,-470.8234852217138,-1100.7348347585648,-1104.9197828089818,-343.2330583333969,194.0
1731740266.6480815,-557.1254165992141,-1104.7215681113303,-1108.7382206637412,-637.5332656465471,194.0
1731740266.6610732,-630.5733118290082,-1065.7368509732187,-1065.96124497056,-682.1801913175732,195.0
1731740266.6610732,-507.9120730822906,-1078.7965816184878,-1079.952210704796,-364.6178062800318,195.0
1731740266.676711,-517.9649241631851,-1104.2466008169577,-1106.0978512950242,-524.6892642835155,196.0
1731740266.676711,-653.5475172568113,-1080.7301098955795,-1077.8391672298312,-766.9936425127089,196.0
1731740266.6774492,-563.5655243229121,-1078.542268421501,-1082.1737112784758,-471.65374301187694,197.0
1731740266.6774492,-496.35952211916447,-1119.4679936366156,-1117.930894754827,-438.4284718055278,197.0
1731740266.69104,-620.5055011482909,-1092.6454311544076,-1086.1903638308868,-743.3312954930589,198.0
1731740266.69104,-606.7052703117952,-1076.72093714308,-1088.8382129995152,-588.7799298241735,198.0
1731740266.7067797,-498.4314266946167,-1114.7258004928008,-1121.719413409941,-365.04415487498045,199.0
1731740266.7067797,-554.2569133331999,-1110.970940937288,-1108.1173972710967,-633.9654010888189,199.0
1731740266.7074995,-624.1743430048227,-1065.3030225783587,-1059.872687842697,-671.521476443857,200.0
1731740266.7074995,-502.93052634131163,-1083.291941365227,-1084.0997597556561,-363.88852578867227,200.0
1731740266.7216604,-510.9657013961114,-1103.711795123294,-1101.3182591516525,-523.4812765978277,0.0
1731740266.7224343,-633.1744122481905,-1069.4430918293074,-1061.608001422137,-758.5526883127168,101.0
1731740266.7224343,-541.2925501368009,-1057.617528169416,-1060.4336728360504,-456.3351127933711,101.0
1731740266.7360475,-472.2839161544107,-1094.0478936377913,-1080.688970996067,-409.68734064605087,102.0
1731740266.7360475,-592.6787755279802,-1060.8263623313978,-1052.3255697321147,-721.9839465459809,102.0
1731740266.75194,-581.1187447649427,-1039.0003061899915,-1024.4446155624464,-573.0798298101872,103.0
1731740266.75194,-454.7250858624466,-1056.832149178721,-1051.2709179446101,-331.69172707013786,103.0
1731740266.7523775,-525.0875636287965,-1059.0349502526224,-1042.8935420438647,-610.3441929686815,104.0
1731740266.7523775,-605.0653241812252,-1006.4444770757109,-984.8465548316017,-652.1338350735605,104.0
1731740266.7660549,-473.40962604107335,-1019.7921800175682,-990.9500715592876,-338.74143848661333,105.0
1731740266.7660549,-470.30176917789504,-1030.866023786366,-1000.1128264507279,-481.39618239644915,105.0
1731740266.7817268,-586.7772133979015,-974.3523955559358,-933.4827688401565,-712.1704490622506,106.0
1731740266.7817268,-506.35066485079005,-976.1886864341795,-932.1925033554435,-415.7833775738254,106.0
1731740266.7823973,-426.35046489862725,-1011.8448926117271,-960.4698869204149,-379.6559440018609,107.0
1731740266.7823973,-552.5047702039592,-991.7990288492292,-944.9455622043461,-687.9770362488925,107.0
1731740266.796152,-535.2413920084946,-974.5693097533658,-918.7400832148269,-531.7501953998581,108.0
1731740266.796152,-416.1068789199926,-1007.4692096635699,-950.9331420334056,-290.5827467571944,108.0
1731740266.811829,-506.6760361469351,-1026.572618637234,-967.9010681323707,-594.8123884527013,109.0
1731740266.811829,-564.012442367617,-984.3454082375392,-926.3358200248331,-619.8809378556907,109.0
1731740266.8124163,-430.4493952500634,-994.6563124153763,-946.2395675890148,-302.5915655149147,110.0
1731740266.8124163,-462.9341662651859,-1034.4899868434295,-980.392333984375,-473.16092269402,110.0
1731740266.8262956,-586.807132597547,-1012.6714105019346,-970.4142809025943,-711.2990523725748,111.0
1731740266.8262956,-509.69413541117683,-1032.8855697624385,-993.164092333056,-426.29623634926975,111.0
1731740266.84173,-459.02597081148997,-1088.6886170012876,-1059.6632534451783,-408.0006457660347,112.0
1731740266.84173,-586.9081098963507,-1083.7856081593782,-1050.1900868574157,-725.1404221085832,112.0
1731740266.8424966,-584.6903492226265,-1075.1576589616016,-1059.6258544456214,-583.936759381555,113.0
1731740266.8424966,-469.9502185820602,-1110.5221529426053,-1104.0708255190402,-353.169972515665,113.0
1731740266.8561432,-565.665478148032,-1117.4559274604544,-1111.1990748345852,-656.2514649247751,114.0
1731740266.8561432,-648.6014995654114,-1100.0878320662305,-1086.4184977281839,-706.665316327475,114.0
1731740266.8718371,-515.457321242895,-1131.054203699343,-1115.8776896791533,-396.68370850011706,115.0
1731740266.8718371,-539.8152896543033,-1152.1434995494783,-1136.3162429369986,-566.4676866885275,115.0
1731740266.8731344,-654.6077788942493,-1118.6938343457878,-1101.0078474553302,-786.8151122778654,116.0
1731740266.8731344,-575.5201145312749,-1110.3052387451753,-1108.4839074667543,-492.5672635640949,116.0
1731740266.8860621,-504.7425078698434,-1140.1159812919796,-1147.0198366101831,-458.6688103657216,117.0
1731740266.8860621,-637.920345291961,-1135.082075951621,-1133.0513102756813,-771.623638657853,117.0
1731740266.9017053,-626.3229155293666,-1121.0761506175622,-1124.0979897817597,-621.7359282337129,118.0
1731740266.9017053,-506.60497804777697,-1160.9247846454382,-1167.342452969402,-395.3036854164675,118.0
1731740266.902424,-597.1255165752955,-1160.2254233537242,-1165.02745489683,-688.272488345392,119.0
1731740266.902424,-666.298706155736,-1121.453880513087,-1126.0053387591615,-719.7100873729214,119.0
1731740266.916156,-526.5910034109838,-1137.0642229281366,-1144.5328031396493,-397.0876176953316,120.0
1731740266.916156,-545.8552280827425,-1163.9017450101674,-1155.887139405124,-560.0836774641648,120.0
1731740266.9322543,-668.8530578254722,-1129.9958120118827,-1135.8973741419613,-799.4223150284961,121.0
1731740266.9322543,-567.1464785304852,-1123.2939112912863,-1114.710840892978,-490.83942978456616,121.0
1731740266.9325318,-508.35525122703984,-1163.9578435095027,-1163.2697019176558,-458.2499415706843,122.0
1731740266.9325318,-643.3992987270467,-1151.3917796583846,-1150.1763121727854,-780.2366282558069,122.0
1731740266.9465482,-624.0079174567945,-1134.8502021543682,-1137.7935034194961,-616.9413764905185,123.0
1731740266.9465482,-510.7001684992574,-1167.5182282673195,-1173.0420605018735,-385.72206172998995,123.0
1731740266.9618173,-596.5196527824737,-1171.83033291623,-1170.263314834796,-685.5461012776941,124.0
1731740266.9618173,-683.6668015499599,-1132.9615526767448,-1139.0052310051396,-730.1855471488088,124.0
1731740266.962665,-525.2483793268912,-1134.8464622544125,-1143.066762357019,-395.4009228153154,125.0
1731740266.962665,-533.8164901253767,-1143.9119797470048,-1146.249417219311,-548.8751972969621,125.0
1731740266.9760842,-651.9973287251778,-1103.1171510303393,-1110.4959736429155,-783.3482250189409,126.0
1731740266.9760842,-569.4913958027028,-1103.6369971241802,-1111.707701228559,-483.0342585770413,126.0
1731740266.9916284,-508.50858712522313,-1149.1515795849264,-1159.9823298566043,-466.032673378475,127.0
1731740266.9916284,-645.0934734069742,-1136.8136496311054,-1146.9712179107592,-776.9006374953315,127.0
1731740266.992371,-618.3531887237914,-1121.3865623138845,-1134.7492248555645,-610.3292333688587,128.0
1731740266.992371,-506.09635165380314,-1148.7738496894017,-1164.3355734050274,-379.8765980992466,128.0
1731740267.0059063,-581.8779444559477,-1149.8135418770835,-1157.8244075821713,-669.5804683668539,129.0
1731740267.0059063,-658.5645930473693,-1115.1671086875722,-1124.26254537981,-711.1083174748346,129.0
1731740267.0223024,-524.3620230373926,-1137.3035765253007,-1154.5332956211641,-400.483446855098,130.0
1731740267.0223024,-539.7180522554554,-1166.0484475847334,-1182.3394517917186,-556.7701261034235,130.0
1731740267.0225604,-669.2345276209526,-1129.0720567228273,-1141.810155971907,-800.2450930187479,131.0
1731740267.0225604,-574.6225385419093,-1114.4153887964785,-1132.4604060826823,-484.8256706558168,131.0
1731740267.0361965,-503.63923738291487,-1153.3701867349446,-1178.053526442498,-453.4067711280659,132.0
1731740267.0361965,-630.3769670813344,-1133.369201771915,-1152.4202521461993,-759.1398526057601,132.0
1731740267.0519333,-610.4470402174629,-1118.2226069513708,-1127.6060159401968,-595.7511033415794,133.0
1731740267.0519333,-490.0297414441593,-1160.4946961505339,-1162.5890401257202,-366.1736046615988,133.0
1731740267.0524979,-582.3416920504533,-1174.1303713889793,-1166.2429223824292,-676.4020458860323,134.0
1731740267.0524979,-655.6512109818868,-1146.0773818213493,-1134.7604445554316,-708.2734733084217,134.0
1731740267.0665393,-533.3078637314029,-1175.2897403752431,-1160.0571278557181,-397.32323139254004,135.0
1731740267.0665393,-534.994558611419,-1181.1838227054104,-1163.9241844099015,-557.2937120972201,135.0
1731740267.0818272,-653.4222306082956,-1141.9298327704892,-1123.839936684817,-776.2124959034845,136.0
1731740267.0818272,-578.2539813988842,-1153.42628523428,-1141.739097872749,-486.30667103827,136.0
1731740267.082523,-503.5906186834909,-1176.2508946638554,-1169.5041151437908,-450.00720206834376,137.0
1731740267.082523,-625.739491136279,-1153.6768585313112,-1140.5759889865294,-756.1853316407651,137.0
1731740267.0961015,-608.4873326406814,-1126.566323752515,-1121.1771279163659,-590.8443545997143,138.0
1731740267.0961015,-487.4716498744674,-1157.6037534847856,-1144.162553044036,-362.56460120435804,138.0
1731740267.1118908,-567.4942892263643,-1158.3741728756577,-1141.4099866766483,-655.6082021323964,139.0
1731740267.1118908,-650.4602298433892,-1145.9913641223684,-1122.5945499995723,-703.1161512695253,139.0
1731740267.1127288,-523.561684446875,-1160.5844537494704,-1145.490217528306,-387.0385065143928,140.0
1731740267.1127288,-530.1252088691108,-1174.193949688226,-1156.9193517928943,-546.7958129215986,140.0
1731740267.1266427,-658.5571132474579,-1144.4804445402697,-1134.3714949600399,-781.8447852367535,141.0
1731740267.1266427,-576.458829420153,-1143.1939189555123,-1148.2727030953392,-486.77041863277555,141.0
1731740267.1423793,-515.0721115474589,-1180.2413679165766,-1180.3947038147599,-459.0988988606259,142.0
1731740267.1423793,-634.7339505297132,-1158.0525414794683,-1151.7208908544853,-763.6464320523664,142.0
1731740267.1424034,-595.6108570932411,-1123.3799289902672,-1111.6628224290907,-586.3789140526205,143.0
1731740267.1424034,-489.6931504481472,-1163.3332802169025,-1159.1932109659538,-361.45385091751814,143.0
1731740267.1560662,-571.6044392776676,-1166.8039073757827,-1158.2657157769427,-661.390087463893,144.0
1731740267.1560662,-653.8261398035102,-1125.107762769796,-1126.5251848530024,-702.7421612739563,144.0
1731740267.1721249,-535.2974905078299,-1160.2329031536356,-1171.576019719243,-403.92041491437703,145.0
1731740267.1721249,-545.2157051903196,-1180.8696711091325,-1177.836612245068,-564.2686255145818,145.0
1731740267.1727083,-658.9124037432484,-1138.6948193088174,-1124.2849847795442,-772.0163281532004,146.0
1731740267.1727083,-582.3977905497886,-1144.9890709342435,-1147.1320336088538,-498.6371211921796,146.0
1731740267.1864405,-511.8969364850782,-1178.9623221317306,-1180.1777896173298,-464.3272789986804,147.0
1731740267.1864405,-643.130025930237,-1167.9183975625783,-1150.5465622683987,-785.723061490804,147.0
1731740267.2021742,-618.56262312131,-1137.2960967253894,-1127.0712102465332,-606.7464092113078,148.0
1731740267.2021742,-499.64876413019374,-1157.9328646808863,-1147.3751271059737,-379.0986989084631,148.0
1731740267.202469,-575.8641853271984,-1149.5592286800966,-1141.9821913698688,-666.263177106157,149.0
1731740267.202469,-656.2271555750631,-1125.4630532655865,-1112.5566585185006,-707.5591524168849,149.0
1731740267.2172055,-529.5754435756244,-1143.7362044490874,-1136.3274626368657,-388.16421640105546,150.0
1731740267.2172055,-544.1984524023719,-1158.3479935759678,-1157.1624452900141,-558.9243084779009,150.0
1731740267.2320497,-662.7607607976533,-1117.4185284608975,-1113.2223607106134,-788.6214839564636,151.0
1731740267.2320497,-580.9953280664049,-1128.9336804244667,-1133.0812294753268,-497.29823700804263,151.0
1731740267.2327316,-517.4170288196765,-1158.0114025799558,-1158.0301020797342,-471.5901647126302,152.0
1731740267.2327316,-638.1036003897898,-1142.763830460608,-1130.2912641083822,-778.1497640805319,152.0
1731740267.246663,-620.0997220030986,-1115.529878983274,-1111.2776127336547,-608.0890332954004,153.0
1731740267.246663,-508.1794759291224,-1146.6047077151015,-1150.8158350652084,-389.0730120902881,153.0
1731740267.2620995,-589.0248932712711,-1151.6610524551943,-1154.5332956211641,-684.8691793857142,154.0
1731740267.2620995,-663.1983290924691,-1124.4532802775502,-1124.576696976088,-717.9822535933927,154.0
1731740267.262693,-543.7459245077334,-1153.4337650341913,-1157.4952963860705,-417.70568615105003,155.0
1731740267.262693,-559.9097721162252,-1168.1951501592994,-1168.9992286497727,-576.8010302660987,155.0
1731740267.2760842,-684.1941274437122,-1136.8024299312383,-1132.1537342863157,-801.8943888992071,156.0
1731740267.2760842,-581.8368055564351,-1119.9840998305008,-1112.070471524261,-497.54881030507386,156.0
1731740267.2918131,-515.5994374412112,-1140.1533802915365,-1142.1430070679635,-473.920122385025,157.0
1731740267.2918131,-644.3342737159692,-1123.8324568849057,-1118.6489555463195,-791.2917725248262,157.0
1731740267.2923553,-627.3476481172256,-1107.8556042741984,-1105.3910102033988,-623.9050702080131,158.0
1731740267.2923553,-517.7685794155113,-1142.2963429661468,-1142.2178050670773,-406.25411248672754,158.0
1731740267.3060699,-595.0648316997103,-1131.7685245908797,-1128.65318792779,-698.9573825187981,159.0
1731740267.3060699,-683.4162282529287,-1113.4991133073345,-1111.8011987274513,-737.3661550637335,159.0
1731740267.3217137,-542.6089949212037,-1116.8388439677656,-1125.4032148662955,-411.8938816199079,160.0
1731740267.3217137,-556.9178521516733,-1132.1574741862714,-1135.02223755233,-579.9201068291441,160.0
1731740267.3224423,-684.5381982396357,-1111.3972895322368,-1111.6142037296668,-812.2688713762909,161.0
1731740267.3224423,-603.752619296778,-1133.47765887063,-1131.8769816895947,-523.2082639010623,161.0
1731740267.3360393,-537.5115112815984,-1153.6880782311782,-1146.2830763189122,-498.9400530885905,162.0
1731740267.3360393,-637.2247239002027,-1109.946208349429,-1101.9764815438539,-777.0016147941351,162.0
1731740267.3517208,-601.9462476181798,-1077.8391672298312,-1079.073334215209,-598.5148894088343,163.0
1731740267.3517208,-507.5175136369653,-1115.0324722891673,-1123.6529416870326,-392.13225025404245,163.0
1731740267.3524396,-586.7435542983003,-1125.6425684634596,-1131.0392440995201,-686.5035156663507,164.0
1731740267.3524396,-656.4515495724045,-1094.6013988312334,-1095.7121491180733,-713.7112878439948,164.0
1731740267.3660185,-528.0159052941017,-1108.753180263564,-1109.886369950138,-408.7037469577044,165.0
1731740267.3660185,-545.7841699835844,-1130.9719259003177,-1129.7302791150287,-569.7326193498448,165.0
1731740267.381676,-665.2328346683644,-1098.5432533845305,-1099.0294403787702,-803.7231999775395,166.0
1731740267.381676,-582.8951972438954,-1099.0593595784158,-1110.1780821466818,-495.06925663445145,166.0
1731740267.3824484,-515.6779753402807,-1139.0949886040762,-1144.910533035174,-481.48220009543,167.0
1731740267.3824484,-636.7310571060516,-1110.9260621378198,-1114.3443306973204,-770.6026459699497,167.0
1731740267.396064,-614.3926346707158,-1095.2484015235677,-1102.6683630356565,-601.4768901737407,168.0
1731740267.396064,-509.43234241427854,-1127.7069932390004,-1136.9108870299533,-380.86767158750445,168.0
1731740267.411776,-572.056967172306,-1120.2047539278865,-1125.938020559959,-666.0649624085054,169.0
1731740267.411776,-641.996836243663,-1094.328386134468,-1096.7107024062425,-692.2180827986449,169.0
1731740267.4126103,-518.4679407072254,-1108.9252156615257,-1117.3736496614292,-382.887217563577,170.0
1731740267.4126103,-530.1214689691551,-1130.582976304926,-1134.442553059198,-541.8142661806196,170.0
1731740267.4262164,-631.816828564275,-1099.152857077308,-1089.6235919902101,-740.6797064244747,171.0
1731740267.4262164,-562.7371364827268,-1096.88647770416,-1102.4514488382265,-456.4660092918202,171.0
1731740267.4420023,-497.56937975483015,-1131.8882013894618,-1134.236858561635,-483.4082485726103,172.0
1731740267.4420023,-601.231926726643,-1100.0167739670724,-1099.08179897815,-690.6024460177869,172.0
1731740267.442753,-572.0981060718186,-1085.4947424391285,-1081.3060544887558,-533.9155974742025,173.0
1731740267.442753,-492.7037699124776,-1110.4847539430484,-1106.774773187004,-545.8608379326761,173.0
1731740267.4562795,-576.3765516211279,-1107.2048616819084,-1104.7514873109758,-799.942161122337,174.0
1731740267.4562795,-652.2105030226521,-1077.7980283303186,-1076.9453311404213,-863.1726496731862,174.0
1731740267.4722676,-540.9858783404343,-1095.2633611233905,-1100.7722337581217,-554.002600136213,175.0
1731740267.4722676,-537.5788294808008,-1109.5273395543918,-1113.5626916065812,-652.3357896711677,175.0
1731740267.4724367,-643.0627077310346,-1078.0785208269954,-1084.5335881505162,-827.9727112902328,176.0
1731740267.4724367,-566.3685793397017,-1087.443230316043,-1097.5409601964056,-496.7970904139802,176.0
1731740267.4864986,-497.3599453573115,-1125.9903791593388,-1127.7144730389118,-442.4002455584705,177.0
1731740267.4864986,-585.7936197095551,-1099.164076777175,-1096.7967201052234,-703.7481943620369,177.0
1731740267.501979,-563.0438082790934,-1073.392426182516,-1074.3236612714827,-515.3956128936261,178.0
1731740267.501979,-455.3459092550911,-1103.001214131713,-1116.737866668962,-277.78106920886785,178.0
1731740267.5023532,-532.0849164458923,-1131.9069008892402,-1132.0377973876894,-587.254050642252,179.0
1731740267.5023532,-590.1730425576679,-1084.7018836485222,-1088.1949502071366,-627.9965207595378,179.0
1731740267.5171044,-462.2722039730288,-1082.7047770721838,-1096.0711795138195,-350.3538278490305,180.0
1731740267.5171044,-488.3916652635671,-1100.5328801609576,-1112.9643076136708,-510.9787910459563,180.0
1731740267.5324771,-582.7717805453576,-1087.5442076148465,-1092.7389286532998,-562.4136351365596,181.0
1731740267.5324771,-526.1459553162567,-1096.632164507173,-1095.618651619181,-443.5109958453104,181.0
1731740267.5325084,-477.2056244960986,-1119.0715642413124,-1127.048770846799,-466.04763297829777,182.0
1731740267.5325084,-609.9122345237993,-1099.0107408789918,-1105.5630456013605,-762.7862550625578,182.0
1731740267.546576,-585.5505262124352,-1091.9909486621618,-1091.6169586665928,-567.787871372886,183.0
1731740267.546576,-455.28607085580006,-1113.9329417021945,-1114.7519797924906,-287.55716769304127,183.0
1731740267.5618618,-475.0551820215769,-1089.7881475882605,-1082.0166354803368,-508.60021467413753,184.0
1731740267.5618618,-570.6732041887008,-1079.8961122054607,-1086.5269548268989,-549.5147201893851,184.0
1731740267.562794,-435.8535506860353,-1103.2854465283453,-1108.0949578713626,-231.38013045862317,185.0
1731740267.562794,-432.2669866285287,-1107.137543482706,-1118.5741575472057,-372.42297748755664,185.0
1731740267.5764115,-518.7746125035919,-1064.805615884252,-1067.0570356575772,-560.0761976642534,186.0
1731740267.5764115,-448.8983217314817,-1073.7514565782622,-1079.2678090129048,-277.70627120975405,186.0
1731740267.5924575,-381.33328913198784,-1110.4847539430484,-1117.9645538544282,-267.47390493098646,187.0
1731740267.5924575,-480.0666479622014,-1093.2512949472293,-1091.2317489711568,-548.1159976059571,187.0
1731740267.5926332,-481.41301194624975,-1070.5538421161473,-1070.980190711096,-385.60986473131925,188.0
1731740267.5926332,-380.74238493898883,-1105.002060608007,-1107.945361873135,-173.42290084529668,188.0
1731740267.6065795,-437.65244256472215,-1093.1690171482041,-1088.2323492066935,-444.2552359364927,189.0
1731740267.6065795,-512.0727117829956,-1066.1108409687877,-1063.2797367023304,-458.9567826623097,189.0
1731740267.6224442,-394.95774467056617,-1082.2260698778555,-1080.4383976990357,-159.1177835147828,190.0
1731740267.6224442,-394.4341586767696,-1094.3246462345123,-1076.72093714308,-294.4011846119538,190.0
1731740267.6226196,-489.2967210528441,-1063.3507948014885,-1035.787732128054,-491.6360284751281,191.0
1731740267.6226196,-413.30569385318086,-1036.3935959208757,-1020.6860161069781,-196.16149257589132,191.0
1731740267.636305,-344.9702418628149,-1053.4325801189989,-1048.462253077887,-172.5963829550892,192.0
1731740267.636305,-420.1347511722706,-1017.4921415448189,-1017.7127956422046,-430.3428081013262,192.0
1731740267.653031,-410.8111805827357,-1000.0642077513039,-987.0605756053701,-286.49503610562533,193.0
1731740267.653031,-312.3994531487115,-1012.256281606853,-996.6010603923351,-69.75661397352815,193.0
1731740267.6530776,-368.4979524840601,-1012.9855620982125,-981.7461777683347,-367.44517064653337,194.0
1731740267.6530776,-462.0964286751114,-979.4087402960286,-957.4667472559959,-422.54885659366846,194.0
1731740267.6666076,-367.84346999181435,-989.076381681487,-974.2102793576196,-186.72198508773,195.0
1731740267.6666076,-352.24808717658743,-989.4989903764799,-968.4134344263002,-341.29205025639385,195.0
1731740267.6824837,-443.7073405929841,-969.236212416552,-953.1845618067309,-524.068440890871,196.0
1731740267.6824837,-379.81114985002205,-963.2748118871823,-945.1475168019533,-228.89309698808938,196.0
1731740267.682598,-343.61265817889944,-1021.9538421919569,-1016.5085478564724,-225.20181573182344,197.0
1731740267.682598,-437.4804071667604,-998.097020374611,-985.7516106208786,-488.2252397155389,197.0
1731740267.696591,-461.70373917976394,-994.0803678222001,-984.734357832931,-376.70890283677727,198.0
1731740267.696591,-381.76711752684787,-1005.3299868889153,-1008.9539499459788,-172.39816825743765,198.0
1731740267.7121212,-445.39029557304457,-1030.009586696513,-1032.1114104716107,-449.075966979377,199.0
1731740267.7121212,-528.3786755898036,-1003.7068703081459,-1006.3547194767743,-507.99435088131577,199.0
1731740267.712582,-431.5975445364602,-1005.3898252882063,-1014.2571280831471,-262.0136509956792,200.0
1731740267.712582,-428.84123826911673,-1028.4276090152562,-1039.6360891824588,-418.62944144010544,200.0
1731740267.7274785,-538.1996528734453,-1034.869586688932,-1036.3599368212745,-654.9163206405938,0.0
1731740267.727523,-533.4611996295862,-1046.4520568517037,-1055.1005754992366,-475.90600926149637,101.0
1731740267.727523,-494.1398914954625,-1084.4419606016017,-1094.2872472349554,-488.9732197066769,101.0
1731740267.7415907,-579.8022999805398,-1085.5040921890177,-1094.2835073349997,-742.6020150016993,102.0
1731740267.7415907,-602.4960129116662,-1092.1910333097912,-1106.546639289707,-587.6430002376437,102.0
1731740267.7569315,-551.5922346147709,-1146.6851155641489,-1167.7014833651483,-461.5522732315585,103.0
1731740267.7569315,-580.1388909765519,-1155.1784283635207,-1173.1168585009873,-656.1392679261044,103.0
1731740267.7575617,-643.4703568262048,-1097.3745346483774,-1115.2606061864644,-735.7131192833185,104.0
1731740267.7575617,-574.4355435441248,-1127.8248000876047,-1149.3348346827552,-414.69506668671966,104.0
1731740267.7710125,-546.7640237719752,-1161.3941420898773,-1187.4406753312796,-560.3716497607529,105.0
1731740267.7710125,-641.0543814548291,-1125.9099713102914,-1153.9012525286525,-743.3986136922613,105.0
1731740267.7868907,-625.4926577392034,-1152.2538265981711,-1176.1087784655392,-526.2001838656142,106.0
1731740267.7868907,-572.864785562735,-1189.5929877557792,-1221.4812447279692,-519.7413766421378,106.0
1731740267.7874234,-623.5778289618902,-1157.7851386326365,-1189.680875404738,-779.5634462637827,107.0
1731740267.7874234,-673.643869668711,-1159.9580205068924,-1183.685815775767,-681.8735195212066,107.0
1731740267.8010657,-611.3558359066956,-1195.4160119867884,-1234.8738264692947,-485.25575915072113,108.0
1731740267.8010657,-614.4337735702284,-1182.3787207412533,-1231.8295479053631,-695.0342274652794,108.0
1731740267.8174703,-689.0036387867294,-1173.6722336444072,-1213.7209523199126,-713.5168130462989,109.0
1731740267.8174703,-645.3103876044042,-1200.2666622293182,-1246.6582512296736,-478.76329282764345,109.0
1731740267.817492,-615.9110340527259,-1208.9731493261643,-1254.7850538333878,-586.7267247484997,110.0
1731740267.817492,-663.1085714935325,-1195.5244690855034,-1236.897112345323,-756.7014378346503,110.0
1731740267.8316898,-643.8480867217295,-1182.2665237425826,-1249.126585200429,-504.9837314169854,111.0
1731740267.8316898,-560.8335274052806,-1213.0384205779992,-1267.1529029868543,-469.45842173788697,111.0
1731740267.8469665,-611.482992505189,-1174.098582239356,-1229.503330132924,-681.0507415309548,112.0
1731740267.8469665,-637.8941659922712,-1149.4713410311379,-1205.0256849229336,-559.1187832755968,112.0
1731740267.8478563,-566.8585062338971,-1192.6559658194892,-1259.0111407833174,-388.8822771925479,113.0
1731740267.8478563,-552.362654005643,-1203.4792362912558,-1261.1541034579277,-615.3033003099263,113.0
1731740267.861641,-644.360453015659,-1175.5608831220306,-1230.8085552174598,-673.4176057213917,114.0
1731740267.861641,-546.7266247724183,-1171.8845614655875,-1229.7613832298666,-432.2052782792598,114.0
1731740267.8775167,-516.0108264363371,-1199.0474548437633,-1247.2154963230714,-559.466593971476,115.0
1731740267.8775167,-587.1848624930717,-1158.0357119296677,-1207.082629898563,-722.6010300386697,115.0
1731740267.877537,-572.4982753670774,-1164.7712717498653,-1205.4370739180595,-486.3440700378269,116.0
1731740267.877537,-543.0016844165511,-1202.1440920070745,-1250.8244997803122,-493.9360669478774,116.0
1731740267.8916833,-590.9135427488945,-1193.0262159151025,-1237.6189130367711,-733.8319496056065,117.0
1731740267.8916833,-621.0010378924198,-1179.053949680645,-1220.4527722401544,-601.9331579683349,117.0
1731740267.9075415,-535.3498491072096,-1187.8539342763834,-1235.7826221585274,-424.96109206508845,118.0
1731740267.9075415,-520.4538275836967,-1171.1515410742722,-1212.871995029971,-644.5231386637315,118.0
1731740267.9075637,-600.1660552392714,-1148.5438458421268,-1185.0284398598596,-669.6552663659677,119.0
1731740267.9075637,-567.3072942285798,-1167.6397750158794,-1209.3564890716225,-463.09685191325843,119.0
1731740267.9210935,-514.0959976590239,-1173.627354844939,-1209.5621835691854,-556.9234620016068,120.0
1731740267.9210935,-595.1059705992229,-1154.378089773003,-1186.3598442440853,-738.8022766467184,120.0
1731740267.936798,-584.1817228286527,-1151.629263305571,-1187.9006830258295,-500.899760665372,121.0
1731740267.936798,-511.1863554934971,-1174.0350039401092,-1210.1979665616527,-478.0826310357079,121.0
1731740267.9378676,-537.2272788849659,-1142.051379519049,-1182.189855793491,-685.2506491811946,122.0
1731740267.9378676,-693.4840389336459,-1139.639144047629,-1173.6292247949168,-665.3207223173231,122.0
1731740267.951185,-730.086439799983,-1133.079359525349,-1199.075504093431,-650.1890870966017,123.0
1731740267.951185,-706.8354817754589,-1129.3319797697477,-1189.1423298111185,-883.2372129354626,123.0
1731740267.967838,-772.4146274984814,-1099.9662853176706,-1145.4154195291921,-868.5207066098228,124.0
1731740267.967838,-754.2162743140943,-1106.425092541147,-1133.982545364648,-649.4074480058625,124.0
1731740267.9678829,-670.7903260025196,-1126.1231456077658,-1150.9691709633917,-764.6487252404913,125.0
1731740267.9678829,-744.6608299273066,-1112.745523466263,-1113.2074011107907,-907.9392521427944,125.0
1731740267.981662,-721.9446775964461,-1096.3572818604298,-1133.5674164695665,-689.5590139301494,126.0
1731740267.981662,-591.0294796475209,-1132.0359274377115,-1169.41809744481,-627.5439928648993,126.0
1731740267.9972134,-504.1142046772875,-1130.5511871553026,-1170.779421028681,-718.2964051896706,127.0
1731740267.9972134,-600.5250856350176,-1117.8392672059126,-1168.9992286497727,-660.0063244802877,127.0
1731740267.997681,-549.0865016444586,-1148.7121413401328,-1186.2700866451487,-496.9392066122964,128.0
1731740267.997681,-573.9605762497522,-1135.9964814907871,-1175.7347884699702,-750.0967745129019,128.0
1731740268.0112083,-697.9270400810055,-1111.67217217898,-1149.4619912812486,-808.5962896198034,129.0
1731740268.0112083,-652.730349116493,-1127.301214093808,-1167.3835918689147,-573.9923653993756,129.0
1731740268.0271032,-578.8074865923263,-1145.5781051772647,-1188.9815141130239,-661.4536657631397,130.0
1731740268.0271032,-624.7783368476667,-1113.082114462275,-1153.8264545295388,-809.8528960049152,130.0
1731740268.0275273,-635.6352664190345,-1120.7713487711735,-1158.7668623710051,-590.159952907823,131.0
1731740268.0275273,-554.8683869759552,-1126.205423406791,-1164.7245230004191,-564.7061938093975,131.0
1731740268.0415692,-605.6861475738697,-1097.9691787413321,-1132.838135978207,-790.2296409374103,132.0
1731740268.0415692,-633.0846546492539,-1081.5173588362522,-1115.615896682255,-664.7372979242355,132.0
1731740268.0575683,-573.0966593599878,-1128.8869316750206,-1166.2429223824292,-488.9059015074745,133.0
1731740268.0575683,-558.0398221383803,-1119.5072625861503,-1158.067501079291,-700.6964359981939,133.0
1731740268.0576,-654.2898873980157,-1099.1248078276403,-1140.6470470856875,-720.8881558589637,134.0
1731740268.0576,-618.7608378189616,-1115.146539237816,-1161.4483706392348,-500.3836544714868,134.0
1731740268.0716257,-542.1041084271856,-1110.078974797856,-1149.1141805853695,-591.7269709892571,135.0
1731740268.0716257,-621.9322729813866,-1080.4327878491022,-1121.741852809675,-758.1412993175909,135.0
1731740268.0869384,-613.7643314781599,-1094.6593672805466,-1127.7182129388675,-534.2559283701703,136.0
1731740268.0869384,-533.8351896251552,-1122.0952733554877,-1156.3658465994522,-511.6931119374931,136.0
1731740268.0875251,-581.7358282576315,-1109.6675858027302,-1133.6122952690348,-749.5956279188395,137.0
1731740268.0875251,-637.4117188979872,-1111.4028993821703,-1151.025269462727,-655.7951971301809,137.0
1731740268.1012845,-569.6746509005316,-1140.7910332339816,-1176.340652262792,-481.76269259210676,138.0
1731740268.1012845,-557.0150895505212,-1109.2374973078258,-1138.0777358161286,-715.1735887266695,138.0
1731740268.1177752,-634.0944276372902,-1078.8021914684214,-1106.8308716863394,-717.2978519015014,139.0
1731740268.1177752,-574.1513111474924,-1078.274865574669,-1106.6999751878902,-471.5228465134278,139.0
1731740268.1178095,-515.7602531393059,-1079.9428609549068,-1097.1220914013684,-593.3987062694505,140.0
1731740268.1178095,-589.2567670685239,-1059.631464295555,-1070.9876705110073,-779.5223073642701,140.0
1731740268.1316748,-587.3718574908562,-1046.496935651172,-1061.0133573291823,-537.6031388305128,141.0
1731740268.1316748,-511.95303498441353,-1064.5232534375973,-1085.1095327436924,-525.5008225739002,141.0
1731740268.147242,-566.6677713361569,-1052.0581668852828,-1073.2241306845099,-765.183530934155,142.0
1731740268.147242,-609.5681637278758,-1048.7483554244973,-1067.9845308465883,-633.0453856997192,142.0
1731740268.147715,-531.4453935534693,-1077.0593980890699,-1096.9986747028306,-454.11735211964697,143.0
1731740268.147715,-539.8265093541704,-1077.8036381802522,-1095.607431919314,-695.7448084568605,143.0
1731740268.1616902,-628.1966054071672,-1057.6717567187734,-1079.4323646109551,-718.8050315836444,144.0
1731740268.1616902,-568.6723577124067,-1059.7848001937382,-1086.500775527209,-467.3977368623018,144.0
1731740268.1769552,-528.337536690291,-1067.9340421971865,-1097.0136343026534,-601.5741275725886,145.0
1731740268.1769552,-588.4788678777404,-1032.0310026225634,-1059.461298847571,-767.4050315078348,145.0
1731740268.177748,-593.3743969197385,-1041.780921807047,-1066.8027224605903,-529.4651165269315,146.0
1731740268.177748,-539.5609764573164,-1070.8810833622701,-1099.044399978593,-546.9304493200034,146.0
1731740268.1915424,-600.4128886363469,-1059.3434919989668,-1079.4435843108222,-802.0365050975233,147.0
1731740268.1915424,-616.5505569451489,-1030.14235314494,-1051.5663700411096,-641.0263322051615,147.0
1731740268.207504,-524.6649549338035,-1045.5096020628698,-1068.6951118381694,-440.96412397548556,148.0
1731740268.207504,-527.3950819014572,-1041.504169210326,-1058.1523338630795,-678.1074402658269,148.0
1731740268.2075353,-609.5158051284961,-1018.9899714770727,-1035.2641461342573,-688.7287561399862,149.0
1731740268.2075353,-538.2968902722932,-1026.873680583667,-1050.8034304501489,-416.0937892701477,149.0
1731740268.285482,-521.2167671746574,-1057.5259006205015,-1079.7502561071888,-588.1441468317062,150.0
1731740268.285482,-617.9455396286212,-1048.4716028277762,-1071.7954889014363,-773.5833462346345,150.0
1731740268.2855055,-587.3531579910778,-1048.340706329327,-1074.4208986703306,-502.59019544534385,151.0
1731740268.2855055,-485.75129589485005,-1054.0178744620644,-1081.8146808827296,-476.6764286523685,151.0
1731740268.28556,-566.5368748377077,-1046.893365046475,-1067.5207832520828,-736.3451623758301,152.0
1731740268.28556,-607.249425755348,-1034.9107255884446,-1060.3626147368923,-599.6144199958071,152.0
1731740268.2855785,-506.9714882434346,-1061.1311641777866,-1082.8394134705886,-395.2962056165561,153.0
1731740268.2855785,-520.4800068833865,-1055.6222915430553,-1076.8555735414848,-652.5751432683319,153.0
1731740268.285596,-604.2612456907518,-1036.088794074487,-1051.1437613461167,-657.2500182129443,154.0
1731740268.285596,-552.1532196081243,-1057.0771126258187,-1088.3557659052312,-403.5726042184979,154.0
1731740268.2856133,-504.75372756971046,-1066.3819837155752,-1096.0076012145728,-538.0481869252399,155.0
1731740268.2856133,-582.6034850473516,-1033.7064778027125,-1057.2397982738912,-703.3592447666451,155.0
1731740268.2856307,-579.667663582135,-1056.1009987373836,-1076.7508563427255,-455.89754449855536,156.0
1731740268.2856307,-487.00416238000616,-1075.1931880111806,-1099.8970971684903,-437.5795145155862,156.0
1731740268.2969568,-547.2801299658604,-1057.338905622717,-1077.6110333325341,-679.5136426491663,157.0
1731740268.2969568,-569.1286255070008,-1047.7161430367269,-1061.6753196213394,-531.2041700063273,157.0
1731740268.2975395,-477.5833543916233,-1069.4674011790194,-1080.43465779908,-325.9061018386856,158.0
1731740268.2975395,-491.914651021827,-1060.3158659874462,-1087.0729802204296,-596.6187601312995,158.0
1731740268.3113992,-549.1014612442814,-1026.8998598833568,-1051.6299483403563,-580.33149582427,159.0
1731740268.3113992,-497.05327356094494,-1056.7741807294078,-1080.0232688039541,-317.2706728409976,159.0
1731740268.327037,-473.3909265412949,-1085.5826300880872,-1109.4076627558097,-484.859329755418,160.0
1731740268.327037,-547.9907109574415,-1071.7973588514142,-1091.9385900627822,-657.264977812767,160.0
1731740268.3277645,-475.4590912167914,-1052.1853234837763,-1079.3313873121515,-309.13639043737203,161.0
1731740268.3277645,-384.0073176003061,-1070.8287247628905,-1096.3741114102304,-295.9981218930334,161.0
1731740268.3413732,-469.17979919118807,-1059.8259390932508,-1083.5986131615937,-581.9658321049064,162.0
1731740268.3413732,-442.0094260131009,-1068.603484289255,-1092.1891633598134,-323.0151591729373,162.0
1731740268.357483,-351.06253889063373,-1111.4814372812398,-1146.1933187199757,-135.49283549468964,163.0
1731740268.357483,-416.52574771502987,-1077.8335573798977,-1102.047539643012,-532.4046778921038,163.0
1731740268.357528,-472.25399695476517,-1036.6385593679734,-1064.0239767935127,-497.1262016100809,164.0
1731740268.357528,-409.60693279700354,-1062.3354119635187,-1091.60199906677,-221.16272377967834,164.0
1731740268.3714864,-389.40025333641097,-1080.31311105052,-1114.9688939899206,-412.06217711791396,165.0
1731740268.3714864,-506.67977604689077,-1062.0623992667533,-1087.2824146179482,-626.4893410773948,165.0
1731740268.38734,-486.813427482266,-1059.074219202157,-1091.3402060698718,-372.538914386183,166.0
1731740268.38734,-411.2113498779945,-1082.052164529916,-1112.3771433206275,-363.67909139115363,166.0
1731740268.3873887,-485.33990689972416,-1062.9562353561632,-1091.953549662605,-632.5965977050364,167.0
1731740268.3873887,-510.83106499770656,-1036.376766371075,-1065.0561891812831,-463.0332736140117,167.0
1731740268.4025776,-430.16516285343096,-1067.7881860989146,-1092.701529653743,-289.18776407372206,168.0
1731740268.4025776,-461.6364209805615,-1076.4348347964697,-1095.4092172216624,-560.1360360635445,168.0
1731740268.4191191,-517.9032158139162,-1039.3986055352725,-1062.9768048059195,-542.1545970765874,169.0
1731740268.4191191,-488.11491266684607,-1054.45544275688,-1081.122799390927,-341.8717347495258,169.0
1731740268.419145,-497.0981523604132,-1064.1941422414966,-1091.3925646692514,-555.2592065213248,170.0
1731740268.419145,-617.104062138591,-1037.0948271625675,-1060.7328648325056,-782.1626767329872,170.0
1731740268.4477108,-625.6160744377412,-1041.8706794059835,-1068.7325108377263,-553.3443777440116,171.0
1731740268.4477108,-569.319360404741,-1072.8520106389187,-1100.9592287559062,-585.1559667671099,171.0
1731740268.448413,-607.0025923582725,-1041.4705101107247,-1065.3030225783587,-799.2689791303128,172.0
1731740268.448413,-575.867925227154,-1007.4486402138136,-1030.7949656872079,-565.6037697987631,172.0
1731740268.449093,-482.9837699276395,-1030.9165124357678,-1057.7820837674662,-363.51827569305897,173.0
1731740268.449093,-525.9627002184279,-1039.1368125383742,-1059.3491018489003,-664.0267169326544,173.0
1731740268.4615705,-614.5908493683673,-1019.7641307679005,-1042.8000445449725,-684.4316110908985,174.0
1731740268.4615705,-564.603346560616,-1037.9774435521103,-1060.2429379383102,-449.1806841781363,174.0
1731740268.4774964,-572.853565862868,-1041.9529572050087,-1074.0207293750718,-672.6808454301208,175.0
1731740268.4774964,-688.3416764945723,-995.5183593551628,-1012.9668625984341,-875.682615024969,175.0
1731740268.477534,-617.4593526343815,-1018.8029764792882,-1043.8771357322112,-534.427963768132,176.0
1731740268.477534,-514.7392604514025,-1057.5259006205015,-1084.6644846489653,-504.56112272199243,176.0
1731740268.4913373,-571.574520078022,-1036.3356274715625,-1045.9228610079736,-726.28857139498,177.0
1731740268.4913373,-569.4652165030129,-1018.3691480844282,-1034.2581130461767,-534.790734063834,177.0
1731740268.507486,-476.15097270859405,-1054.9827686506324,-1083.340560064651,-343.06850273534656,178.0
1731740268.507486,-487.1687179780565,-1048.1985901310109,-1072.7678628899157,-605.6880175238475,178.0
1731740268.5075214,-575.856705527287,-1031.1857852325775,-1057.2809371734038,-596.1886716363952,179.0
1731740268.5075214,-525.0127656296827,-1068.3566508921795,-1094.122691636905,-361.71190401446074,179.0
1731740268.5211174,-497.79377375217155,-1086.4951656772755,-1109.3216450568289,-521.1438391255215,180.0
1731740268.5211174,-578.6915496936999,-1052.839805976022,-1074.6191133679822,-685.7069169757888,180.0
1731740268.5366788,-554.6028540791012,-1061.8118259697221,-1086.7102099247277,-411.95745991915464,181.0
1731740268.5366788,-462.73595156753436,-1075.380183008965,-1104.411156415008,-403.90919521450996,181.0
1731740268.5374267,-544.2732504014857,-1049.2756813182496,-1067.0196366580203,-676.8171747811139,182.0
1731740268.5374267,-587.9814611836337,-1043.5611141859554,-1054.1356813106686,-539.3908110093325,182.0
1731740268.5527484,-481.9814767395146,-1073.0764046362601,-1101.5351733490825,-332.54816415999085,183.0
1731740268.5527484,-492.1502647190355,-1063.01981365541,-1085.9996289331466,-595.3172749467194,183.0
1731740268.5826237,-542.5192373222671,-1024.5923416106962,-1036.7002677172422,-573.5847163042054,184.0
1731740268.5826237,-477.51603619242087,-1062.8889171569608,-1078.336573923938,-315.8457709578797,184.0
1731740268.5826368,-470.4364055762999,-1066.2735266168602,-1103.0909717306495,-489.4220077013597,185.0
1731740268.5826368,-562.613719784189,-1051.321406594012,-1070.303268819116,-674.4348585093394,185.0
1731740268.582647,-524.2423462388106,-1062.7916797581129,-1081.9455773811787,-380.27302749454975,186.0
1731740268.582647,-411.63395857298747,-1074.273172622081,-1100.7497943583876,-360.3281410308555,186.0
1731740268.5969396,-495.0973058841191,-1060.873111080844,-1079.144392314367,-641.5611378988251,187.0
1731740268.5969396,-524.9978060298599,-1050.8800983992405,-1078.8825993174687,-484.02159216534346,187.0
1731740268.5976167,-451.8565825964324,-1088.948540048208,-1120.197274127975,-313.2502803886309,188.0
1731740268.5976167,-482.0525348386727,-1098.840575431008,-1126.6897404510528,-593.0920344730839,188.0
1731740268.6113143,-540.084562451113,-1049.814226911869,-1075.1464392617345,-590.750857100822,189.0
1731740268.6113143,-484.2141970130615,-1066.191248817835,-1093.0306408498436,-353.6112807104364,189.0
1731740268.6270497,-431.4516884381883,-1057.2117490242235,-1081.5491479858756,-480.13957601133734,190.0
1731740268.6270497,-514.4812073544599,-1026.5146501879208,-1038.9890864901245,-635.9512879652902,190.0
1731740268.6276817,-506.45538204954937,-1041.1077398150228,-1055.2127724979073,-385.6921425303444,191.0
1731740268.6276817,-434.2715730047785,-1054.0066547621973,-1078.3627532236278,-390.6400301717222,191.0
1731740268.6415143,-505.808379357215,-1042.8804523940198,-1057.4043538719416,-649.8973749000579,192.0
1731740268.6415143,-538.2819306724705,-1030.4901638408192,-1054.1282015107572,-492.14465486910194,192.0
1731740268.6575856,-448.17278114007786,-1058.1616836129688,-1093.6589440423995,-326.1230160361156,193.0
1731740268.6575856,-468.77215009601787,-1067.747047199402,-1091.4262237688527,-590.2871095063165,193.0
1731740268.6576145,-546.416213076096,-1065.963114920538,-1092.447216456756,-574.433673594147,194.0
1731740268.6576145,-484.23663641279563,-1068.8989363857545,-1094.5490402318537,-302.31481291819364,194.0
1731740268.671656,-446.4150281609036,-1077.0070394896902,-1106.4045230913907,-458.7024694653228,195.0
1731740268.671656,-533.7229926264845,-1046.5380745506845,-1077.9775435281917,-641.3292641015723,195.0
1731740268.687546,-511.97921428410336,-1053.8981976634823,-1091.893711263314,-381.42491668090224,196.0
1731740268.687546,-459.0895491107367,-1091.4841922181658,-1127.9276473363861,-410.02393164206296,196.0
1731740268.687569,-536.6401145919226,-1087.9200675603934,-1123.649201787077,-681.9071786208078,197.0
1731740268.687569,-565.3962053512223,-1084.3596828025766,-1117.1417758641765,-518.9896567510441,197.0
1731740268.701458,-502.3639314980246,-1121.9194980575703,-1170.8317796280608,-350.9522118419409,198.0
1731740268.701458,-527.3950819014572,-1112.5211294689216,-1153.9423914281651,-633.3670170959085,198.0
1731740268.7171388,-600.798098331783,-1100.418813212309,-1143.9605984464288,-636.3963360600173,199.0
1731740268.7171388,-537.1861399854533,-1112.4014526703395,-1156.9530108924955,-379.16975700762123,199.0
1731740268.717563,-502.02360060205683,-1125.831433411222,-1161.059421043843,-544.1778829526156,200.0
1731740268.717563,-590.6143507524393,-1100.6619067094289,-1136.0320105403662,-723.3041312303394,200.0
1731740268.7325523,-564.4481407124549,-1098.3431687369011,-1143.0256234575063,-461.52048408193514,0.0
1731740268.7325916,-499.8638083776459,-1134.3060467108153,-1168.8533725515008,-471.48357756389305,101.0
1731740268.7325916,-551.7137813633308,-1108.9906639107503,-1142.5543960630894,-698.0915956790559,101.0
1731740268.7465582,-573.8390295011923,-1101.914773194585,-1139.5175972990692,-519.5861707939766,102.0
1731740268.7465582,-477.6263632411137,-1111.4328185818158,-1153.8862929288298,-345.5461864559911,102.0
1731740268.793487,-497.58246940467507,-1096.4096404598095,-1132.5688631813973,-606.0040390701033,103.0
1731740268.793487,-558.1987678864971,-1072.2611064459197,-1110.1930417465046,-587.723408086691,103.0
1731740268.7935102,-499.06720968708396,-1106.19695864385,-1140.4263929883018,-332.78938770713285,104.0
1731740268.7935102,-494.6429080395028,-1132.6305715306662,-1175.1812832765281,-518.1276098112576,104.0
1731740268.7935288,-573.263084908016,-1101.058336104732,-1146.9749578107148,-683.0571978571825,105.0
1731740268.7935288,-532.1466247951612,-1082.50843232451,-1120.1486554285511,-397.4223387413658,105.0
1731740268.793547,-455.8825848987326,-1098.4067470361479,-1140.1309408918023,-413.2121963542886,106.0
1731740268.793547,-525.3961053751409,-1088.8849617489614,-1127.1422683456913,-684.7738119368441,106.0
1731740268.7935655,-575.5219844812527,-1085.5153118888848,-1129.1393749220297,-533.8875482245348,107.0
1731740268.7935655,-496.77839091420174,-1123.5613141381182,-1165.5323413908482,-363.46778704365715,107.0
1731740268.8094656,-499.65811388008296,-1107.2516104313545,-1153.762876230292,-621.072095991578,108.0
1731740268.8094656,-594.4720575567335,-1095.9159736656584,-1137.5990286218002,-647.677744276356,108.0
1731740268.8218555,-534.7346355644986,-1118.1272395025007,-1160.0421682558954,-405.7735353424214,109.0
1731740268.8218555,-495.51430472917855,-1121.9531571571715,-1160.625592648983,-572.9096643622033,109.0
1731740268.8225355,-531.1106725074351,-1047.1177590438165,-1076.0253157513216,-680.5477249869145,110.0
1731740268.8225355,-552.9105493491516,-1084.8944884962402,-1121.5810371115804,-448.2999377385713,110.0
1731740268.8363256,-488.32995691429824,-1130.1397981601767,-1164.0850001079962,-462.02911047590896,111.0
1731740268.8363256,-582.272503901273,-1107.9584515229799,-1136.1853464385495,-733.717882656958,111.0
1731740268.8520637,-641.284385302104,-1060.3682245868258,-1103.0386131312698,-604.3248239899985,112.0
1731740268.8520637,-508.33842167723924,-1080.193434251938,-1107.2647000811994,-374.2648782157339,112.0
1731740268.8526475,-539.8582985037938,-1070.750186863821,-1106.3970432914793,-651.271788133774,113.0
1731740268.8526475,-602.8195142578334,-1049.3953581168316,-1092.9072241513059,-618.5663630212657,113.0
1731740268.8663049,-543.112011465244,-1093.0886092991568,-1123.974573083222,-379.51943765347824,114.0
1731740268.8663049,-505.10714811552316,-1105.6958120497875,-1117.4821067601442,-534.4111342183314,114.0
1731740268.8826532,-595.6763053424656,-1085.7247462864034,-1107.5564122777432,-697.9756587804295,115.0
1731740268.8826532,-555.0983908232301,-1078.7797520686872,-1116.8201444679871,-403.6455322676338,115.0
1731740268.882687,-432.3099954780191,-1125.3789055165835,-1153.0672548385337,-372.0134584424086,116.0
1731740268.882687,-541.3318190863356,-1108.1230071210302,-1138.3096096133813,-682.1858011675067,116.0
1731740268.9297063,-563.0494181290269,-1087.4376204661094,-1114.61360349413,-523.8982754428871,117.0
1731740268.9297063,-494.2689180439338,-1125.3527262168936,-1158.4751501744613,-381.48288513021544,117.0
1731740268.929754,-506.22163830231875,-1099.9288863181137,-1131.3608754957095,-638.2831155876629,118.0
1731740268.929754,-576.3933811709285,-1075.0697713126428,-1095.824346116744,-611.0678636101075,118.0
1731740268.9305985,-528.9938891325146,-1108.3810602179728,-1143.4818912521005,-377.8626619731076,119.0
1731740268.9305985,-510.70203844923526,-1130.9102175510488,-1157.14000589028,-563.518775573466,119.0
1731740268.9314198,-572.6497413152829,-1077.227693587076,-1100.9966277554631,-700.3168361526914,120.0
1731740268.9314198,-546.7696336219087,-1070.5482322662137,-1096.5910256076604,-428.3662709747441,120.0
1731740268.9425836,-500.63048786856234,-1111.3729801825248,-1143.1714795557782,-469.2059784908779,121.0
1731740268.9425836,-587.5345431389287,-1104.1250540683977,-1128.821483425796,-728.0444544241764,121.0
1731740268.9426255,-617.0647931890562,-1094.2591979852878,-1128.0548039348796,-567.5204685260542,122.0
1731740268.9426255,-534.368125368841,-1129.0589670729823,-1164.425331003964,-406.27468193648383,122.0
1731740268.9563675,-542.6856628702953,-1110.0602752980776,-1136.3461621366441,-659.5070478362031,123.0
1731740268.9563675,-610.7256627641618,-1077.0556581891142,-1109.1346500590444,-637.7183906943537,123.0
1731740268.9718049,-555.8949895137921,-1116.3208678239025,-1149.566708480008,-404.45335065806285,124.0
1731740268.9718049,-539.3234928101301,-1143.9961274960078,-1179.945915820077,-585.8010995094664,124.0
1731740268.972436,-632.2974057085812,-1099.8840075186454,-1136.2564045377076,-754.8744967062958,125.0
1731740268.972436,-601.2225769767538,-1116.1675319257192,-1149.1104406854138,-490.0970596433617,125.0
1731740268.9861336,-511.7566902367398,-1127.3610524930991,-1160.6592517485842,-497.42726355651394,126.0
1731740268.9861336,-593.2827693708241,-1112.7978820656426,-1142.9957042578608,-758.0421919687651,126.0
1731740269.00201,-630.924862424843,-1117.5550348092802,-1148.6055541913956,-590.5058936537243,127.0
1731740269.00201,-549.4586216900498,-1151.1318566114642,-1185.0620989594609,-436.8109650746919,127.0
1731740269.0024369,-573.8016305016354,-1143.150910106022,-1173.8124798927456,-701.7005991362967,128.0
1731740269.0024369,-625.8273787852377,-1096.1553272628225,-1129.3749886192381,-668.0863783345558,128.0
1731740269.0166025,-572.286971019581,-1126.0034688091837,-1160.2067238539457,-419.0277407853864,129.0
1731740269.0166025,-535.9164439504966,-1131.2318489472382,-1165.255588794127,-584.0882253297605,129.0
1731740269.032564,-638.6178366336972,-1108.5269163162448,-1149.7537034777924,-752.8549507302232,130.0
1731740269.032564,-594.8946662517264,-1108.2800829191692,-1148.9645845871419,-471.47609776398167,130.0
1731740269.0326033,-535.8341661514714,-1147.2348808576353,-1187.7959658270702,-514.769179651048,131.0
1731740269.0326033,-617.0049547897652,-1123.1125261434354,-1162.7386361239478,-763.6707414020784,131.0
1731740269.046991,-625.3299720911309,-1111.0550886862911,-1147.73415750172,-579.6377443824895,132.0
1731740269.046991,-535.2432619584724,-1134.332226010505,-1164.8853386985138,-424.6562902186997,132.0
1731740269.0624988,-575.1180752860382,-1139.48206824949,-1167.125538771972,-702.8375287228264,133.0
1731740269.0624988,-650.3835618942976,-1117.5438151094131,-1145.6622529262677,-680.9665937819518,133.0
1731740269.0625322,-584.2920498773456,-1142.414149814751,-1178.3227992393076,-438.32188465679064,134.0
1731740269.0625322,-543.1681099645793,-1134.5790594075806,-1166.6056926781312,-591.6353434403427,134.0
1731740269.0766528,-624.3501183027402,-1097.4605523473583,-1120.619882822968,-739.7428614855744,135.0
1731740269.0766528,-604.0985600426793,-1111.5524953803979,-1149.1104406854138,-488.3991450634785,135.0
1731740269.0926518,-553.4790141424164,-1144.7515872870572,-1187.1377434348688,-527.1370288045146,136.0
1731740269.0926518,-601.7012841710821,-1112.1284399735741,-1144.525323339738,-750.4988137581386,136.0
1731740269.0926983,-623.4263630136847,-1104.977751258295,-1148.2614833954722,-584.8997836201452,137.0
1731740269.0926983,-541.0700260894373,-1132.0882860370912,-1171.6545576183125,-431.8518577334471,137.0
1731740269.1454556,-560.6858013570309,-1119.5371817857958,-1150.2436303719878,-682.5036926637404,138.0
1731740269.1454556,-610.265655069612,-1085.7471856861375,-1113.117643511854,-638.7057242826559,138.0
1731740269.1454823,-551.7698798626661,-1115.0044230394997,-1144.9778512343764,-397.0595684456639,139.0
1731740269.1454823,-528.9751896327361,-1123.2883014413528,-1152.8017219416797,-579.12537808856,139.0
1731740269.1454992,-618.4335965728387,-1105.1797058559023,-1131.6862467918545,-731.9002912784927,140.0
1731740269.1454992,-576.4382599703968,-1096.0206908644177,-1130.9607062004507,-449.751018921379,140.0
1731740269.1455176,-519.8161746412516,-1119.9897096804343,-1158.7967815706506,-494.34932589298114,141.0
1731740269.1455176,-617.6781367817894,-1112.431371869985,-1140.4787515876815,-767.6948737544008,141.0
1731740269.1525064,-668.0620689848438,-1109.2038382082246,-1139.1510871034116,-625.2533041420393,142.0
1731740269.1525064,-552.9853473482653,-1126.4036381044425,-1148.661652690731,-445.7081870692782,142.0
1731740269.152527,-572.9601530116051,-1091.5515104173683,-1114.938974790275,-704.6551201012917,143.0
1731740269.152527,-640.8655165070668,-1062.0287401671521,-1081.3060544887558,-669.5898181167431,143.0
1731740269.1828744,-551.3061322681606,-1074.9987132134847,-1102.9002368329093,-403.7988681658171,144.0
1731740269.1828744,-519.0981138497591,-1084.969286495354,-1111.2476935340092,-580.3371056742035,144.0
1731740269.1834404,-593.0172364739701,-1034.0879475981928,-1045.2010603165254,-709.5581289432012,145.0
1731740269.1834404,-540.3295258982107,-1041.0030226162635,-1039.090063788928,-409.203023601789,145.0
1731740269.1839986,-430.0959747042507,-1079.8905023555271,-1092.1031456608325,-400.86304670060053,146.0
1731740269.1839986,-525.7214766712859,-1060.3869240866043,-1074.514396169223,-675.5960974455811,146.0
1731740269.1963437,-538.9607225144282,-1052.0993057847954,-1062.1540268156677,-487.7259630714543,147.0
1731740269.1963437,-459.1026387605816,-1079.385615861509,-1100.155150265433,-343.8407920761965,147.0
1731740269.2118597,-483.72987996879965,-1075.3278244095854,-1090.468809380196,-604.6015765867196,148.0
1731740269.2118597,-535.441476656124,-1048.8904716228135,-1062.3597213132307,-545.7505108839832,148.0
1731740269.2125285,-441.15485887322575,-1074.1647155233659,-1093.5056081442162,-251.40916467132047,149.0
1731740269.2125285,-315.0117732677609,-1104.6972587616183,-1116.4685938721523,-259.82767947157845,149.0
1731740269.2262473,-508.570295474492,-1077.7512795808725,-1095.439136421308,-601.557298022788,150.0
1731740269.2262473,-505.2380446139723,-1085.5078320889734,-1109.1122106593102,-371.17572085233405,150.0
1731740269.2419157,-435.4664710406214,-1100.3178359135054,-1117.8934957552701,-401.5137892928906,151.0
1731740269.2419157,-510.30560905393213,-1065.7424608231522,-1083.377959064208,-647.3224537805654,151.0
1731740269.2428284,-548.912596296519,-1073.6224300297908,-1096.0487401140854,-489.23314275359735,152.0
1731740269.2428284,-482.17034168727696,-1104.3494480657391,-1132.1574741862714,-360.73392017604783,152.0
1731740269.256618,-504.3142893249169,-1068.5586054897867,-1092.6192518547177,-621.771457283292,153.0
1731740269.256618,-583.0242237923667,-1042.095073403325,-1060.0596828404814,-617.272357636597,153.0
1731740269.2971327,-547.2109418166801,-1072.7024146406911,-1093.4869086444378,-410.1005995911546,154.0
1731740269.2971327,-541.0176674900576,-1092.61738190474,-1102.4028301388025,-611.4306339058094,154.0
1731740269.2971482,-619.8734580557793,-1045.4983823630027,-1059.9699252415448,-752.6193370330147,155.0
1731740269.2971482,-578.0763361509889,-1042.6784977964126,-1067.4048463534564,-463.0613228636794,155.0
1731740269.297161,-519.5169826447964,-1072.3209448452108,-1093.8683784399182,-519.0401454004459,156.0
1731740269.297161,-601.158998677507,-1055.6783900423907,-1067.3824069537222,-775.6346813603304,156.0
1731740269.3017988,-617.3527654856443,-1043.9500637813471,-1055.3997674956918,-593.7670864150859,157.0
1731740269.3017988,-543.9160899557173,-1069.9498482733034,-1083.0563276680186,-453.9733659713529,157.0
1731740269.3024788,-601.1402991777286,-1068.326731692534,-1077.902745529078,-767.2498256596737,158.0
1731740269.3024788,-684.5737272892147,-1030.781876037363,-1033.3941961564124,-762.7432462130673,158.0
1731740269.3163989,-639.1451625274494,-1053.2287555714138,-1069.869440424256,-548.1814458551817,159.0
1731740269.3163989,-633.8419843902811,-1054.563899855595,-1073.0520952865481,-748.2810530844145,159.0
1731740269.3320837,-760.998582883738,-1032.8014220134355,-1036.1018837243319,-964.3350735246204,160.0
1731740269.3320837,-682.89451220911,-1031.3802600302733,-1040.1297559766099,-608.6967670382,160.0
1731740269.33264,-551.9419152606279,-1068.6259236889891,-1077.3866393351927,-553.3051087944768,161.0
1731740269.33264,-588.1329271318391,-1045.0944731677882,-1060.0148040410131,-743.6211377396248,161.0
1731740269.3464236,-579.3927809353918,-1040.273742124904,-1060.426193036139,-522.5332119590603,162.0
1731740269.3464236,-489.87453559599817,-1068.3641306920908,-1089.2309024948627,-368.0865634889342,162.0
1731740269.3618548,-500.8324424661696,-1057.0920722256415,-1077.5624146331102,-618.9403530168347,163.0
1731740269.3618548,-576.3185831718147,-1058.2028225124814,-1070.546362316236,-590.9771210481413,163.0
1731740269.3625417,-500.2303185733035,-1072.6126570417546,-1095.4765354208648,-347.75646732980385,164.0
1731740269.3625417,-466.64227707125247,-1061.377997574862,-1081.8408601824194,-515.9173289374448,164.0
1731740269.3761644,-550.1953819813207,-1033.627939903643,-1057.363214972429,-669.2307877209969,165.0
1731740269.3761644,-534.2671480700374,-1054.9491095510311,-1087.200136818923,-410.1492182905786,165.0
1731740269.3921764,-487.4436006247997,-1084.5055389008485,-1110.4922337429598,-465.1668865387328,166.0
1731740269.3921764,-546.4928810251877,-1052.5331341796555,-1078.433811322786,-697.6353278844617,166.0
1731740269.392588,-558.4007224841043,-1048.4716028277762,-1074.2451233724132,-508.65070332353935,167.0
1731740269.392588,-483.0492181768641,-1072.6051772418432,-1098.827485781163,-366.02213871339336,167.0
1731740269.406551,-520.2126040365547,-1073.499013331253,-1090.3192133819684,-632.0674018613063,168.0
1731740269.406551,-562.3425770374015,-1035.4642307818867,-1056.4805985828862,-581.1187447649427,168.0
1731740269.4227102,-522.2845086120069,-1070.4061160678975,-1092.6790902540088,-354.159176053945,169.0
1731740269.4227102,-495.4507264299318,-1081.3453234382905,-1101.0901252543554,-536.7971903900616,169.0
1731740269.4227538,-579.5461168335751,-1048.920390822459,-1071.197104908526,-675.790572243277,170.0
1731740269.4227538,-549.7054550871253,-1062.451348862145,-1085.8911718344316,-402.9162517762743,170.0
1731740269.4366012,-498.98867178801447,-1097.572749346029,-1119.752226033248,-467.26497041387483,171.0
1731740269.4366012,-585.5299567626789,-1096.835989054758,-1118.1178897526115,-723.9904028722085,171.0
1731740269.4525194,-573.577236504294,-1065.562945625279,-1093.3111333465204,-514.600884153042,172.0
1731740269.4525194,-459.8805379513651,-1057.8437921167351,-1078.807801318355,-339.7456016247161,172.0
1731740269.4525535,-483.72240016888827,-1036.5413219691254,-1052.321829832159,-603.7638389966451,173.0
1731740269.4525535,-568.2179598677903,-1035.2024377849884,-1055.7438382916152,-577.5658398070373,173.0
1731740269.4665956,-510.74317734874785,-1064.695288835559,-1095.3381591225043,-346.2904265471734,174.0
1731740269.4665956,-476.28747905697674,-1068.5361660900526,-1089.0850463965908,-526.8004378085025,174.0
1731740269.4825428,-559.8106647673994,-1031.361560530495,-1049.486985665746,-659.1442775405012,175.0
1731740269.4825428,-515.1712188962847,-1036.2009910731576,-1062.2063854150474,-382.29444342060015,175.0
1731740269.4825792,-463.16043021250516,-1072.5677782422863,-1094.3246462345123,-447.32382385013625,176.0
1731740269.4825792,-542.4799683727324,-1050.8838382991962,-1068.9718644348904,-692.3171901474707,176.0
1731740269.4966242,-555.0123731242493,-1045.4983823630027,-1068.855927536264,-497.1430311598815,177.0
1731740269.4966242,-483.65134206973016,-1104.7084784614854,-1127.8977281367406,-378.5620232648216,177.0
1731740269.5126307,-512.2540969308466,-1073.199821334798,-1094.0366739379242,-644.5212687137537,178.0
1731740269.5126307,-571.3632157305256,-1060.764653982129,-1079.9559506047517,-590.3450779556297,178.0
1731740269.5126748,-502.5378368459642,-1086.9701329716481,-1119.2847385387868,-344.67478976631537,179.0
1731740269.5126748,-496.4567595180124,-1117.1810448137112,-1143.8820605473593,-552.3701338055544,179.0
1731740269.52659,-579.2768440367654,-1079.5875704591163,-1108.2408139696345,-684.268925442826,180.0
1731740269.52659,-552.8133119503036,-1093.7543114912696,-1122.3626762023196,-416.0769597203471,180.0
1731740269.5426242,-497.5637699048966,-1127.061860496644,-1153.9461313281208,-468.6150742978789,181.0
1731740269.5426242,-552.0017536599189,-1093.5186977940612,-1119.101483440958,-700.6683867485262,181.0
1731740269.5426655,-566.9389140829444,-1081.9399675312452,-1107.0141267841682,-507.9363824320026,182.0
1731740269.5426655,-493.98842554725707,-1116.436804722529,-1145.6772125260904,-386.3036161730997,182.0
1731740269.5566175,-526.0206686677411,-1113.7178974547423,-1138.616281409748,-662.4690486011095,183.0
1731740269.5566175,-575.4658859819174,-1074.815458115656,-1095.8393057165667,-591.2351741450839,183.0
1731740269.5725935,-519.1766517488286,-1102.759990584571,-1128.3726954311132,-362.58517065411434,184.0
1731740269.5725935,-504.59478182159364,-1120.4497173749842,-1143.3958735531196,-558.2791757355444,184.0
1731740269.5726364,-595.5603684438393,-1088.5558505528606,-1107.6237304769456,-700.791803447064,185.0
1731740269.5726364,-554.967494324781,-1093.0437304996885,-1120.174834728241,-426.7468942939304,185.0
1731740269.5865388,-509.81194225978106,-1129.5788131668232,-1160.1693248543888,-489.85770604619756,186.0
1731740269.5865388,-579.6583138322458,-1110.5576819921844,-1142.9994441578165,-735.9356433306821,186.0
1731740269.6025836,-574.8450625892729,-1095.9234534655698,-1123.0470778942108,-525.7233466212638,187.0
1731740269.6025836,-486.10471644066274,-1107.8163353246637,-1135.67298014462,-380.3459555436857,187.0
1731740269.6026232,-540.5165208959952,-1114.9221452404745,-1145.5949347270653,-673.3820766718127,188.0
1731740269.6026232,-575.2639313843101,-1073.9291018261574,-1096.0001214146614,-600.8392372312956,188.0
1731740269.6161745,-518.4772904571146,-1104.977751258295,-1123.6940805865452,-367.3759824973531,189.0
1731740269.6161745,-509.4342123642564,-1128.99164887378,-1149.4956503808498,-572.0382676725276,189.0
1731740269.631847,-602.4567439621314,-1110.1313333972357,-1137.1465007271618,-711.3757203216664,190.0
1731740269.631847,-541.133604388684,-1095.0707562756725,-1113.6187901059166,-415.27288122987375,190.0
1731740269.632835,-494.2277791444212,-1132.8587054279633,-1153.5758812325075,-484.78266180632636,191.0
1731740269.632835,-566.3367901900783,-1102.3822606890462,-1122.549671200104,-721.2901951042004,191.0
1731740269.6466284,-586.0984215559438,-1108.7625300134532,-1129.3936881190166,-529.302430878859,192.0
1731740269.6466284,-505.615774509497,-1130.4464699565433,-1153.9947500275448,-404.1092798621394,192.0
1731740269.6940246,-538.0781061248854,-1123.9540036334656,-1144.4617450404912,-666.0443929587491,193.0
1731740269.6940246,-600.7812687819824,-1097.1837997506373,-1113.891802802682,-616.5094180456363,193.0
1731740269.694049,-529.7643085233867,-1126.0446077086963,-1144.1849924437702,-386.18393937451765,194.0
1731740269.694049,-531.5407610023394,-1145.9745345725678,-1157.6673317840323,-587.4204761902802,194.0
1731740269.6940663,-611.3838851563632,-1104.4130263649859,-1117.6878012577072,-710.549202431459,195.0
1731740269.6940663,-586.9810379454866,-1125.360206016805,-1141.2603906784207,-455.18135365704075,195.0
1731740269.7086356,-521.2186371246353,-1143.6782359997742,-1153.882553028874,-508.811519021634,196.0
1731740269.7086356,-564.8894489072263,-1092.9614527006634,-1101.228501552716,-717.8420073450543,196.0
1731740269.708934,-587.8823538348079,-1092.7407986032777,-1099.5418066726997,-533.4649395295419,197.0
1731740269.708934,-509.03778296895325,-1127.2750347941183,-1136.3012833371758,-416.23777541844174,197.0
1731740269.7099197,-555.0385524239391,-1126.916004398372,-1132.61000208091,-691.6851470549591,198.0
1731740269.7099197,-618.1905030757189,-1106.6083476389758,-1114.482706995681,-637.1873249006458,198.0
1731740269.7103565,-551.048079171218,-1125.7603753120638,-1144.5552425393835,-397.2016846439801,199.0
1731740269.7103565,-522.6622385075316,-1118.920098293107,-1130.7849309025332,-576.9824154139496,199.0
1731740269.721636,-605.5122422259301,-1084.1091095055453,-1084.5298482505605,-703.9146199100651,200.0
1731740269.721636,-565.3718960015103,-1100.5010910113342,-1108.6634226646274,-441.0482717244886,200.0
1731740269.7375977,-515.8967594876885,-1133.6777435182594,-1141.4099866766483,-513.7257475634106,0.0
1731740269.7376225,-598.047401914373,-1117.7233303072862,-1122.6132494993508,-755.2185675022192,101.0
1731740269.7376225,-600.339960587211,-1095.149294174742,-1098.0159274907783,-546.7715035718866,101.0
1731740269.7516377,-522.7071173069999,-1127.2077165949158,-1138.433026311919,-434.8101185983978,102.0
1731740269.7516377,-555.9174289135262,-1119.5334418858401,-1122.9947192948312,-688.1023228974082,102.0
1731740269.768502,-571.105162633583,-1060.0540729905479,-1066.866300759837,-595.6295565930195,103.0
1731740269.768502,-518.5483485562727,-1096.7686708555557,-1104.0296866195276,-380.8209228380583,103.0
1731740269.768518,-525.0669941790402,-1123.27334184153,-1127.699513439089,-589.6606762637384,104.0
1731740269.768518,-629.369064043276,-1096.7499713557772,-1098.090725489892,-729.9368438017555,104.0
1731740269.7816772,-579.4825385343283,-1098.1898328387178,-1104.037166419439,-449.32467032643035,105.0
1731740269.7816772,-522.46402380988,-1121.4370509632863,-1128.425054030493,-515.0459322477691,105.0
1731740269.7973442,-598.0848009139299,-1099.0275704287924,-1097.2529878998175,-751.9611146408133,106.0
1731740269.7973442,-605.97224992048,-1088.7054465510882,-1100.297266463749,-556.1810918604024,106.0
1731740269.797758,-532.7861476875842,-1122.1663314546458,-1132.6848000800237,-437.6674021645449,107.0
1731740269.797758,-558.4456012835726,-1107.1169740329497,-1108.0014603724703,-688.2706183954142,107.0
1731740269.8117027,-610.6583445649594,-1081.8053311328404,-1093.075519649312,-635.9606377151795,108.0
1731740269.8117027,-555.1096105230972,-1114.0731879505329,-1132.3594287838787,-403.88862576475367,108.0
1731740269.8274605,-552.338344655931,-1140.929409532342,-1155.3747731111944,-618.0091179278679,109.0
1731740269.8274605,-633.396936295554,-1113.299028659705,-1133.0999289751053,-743.7931731375866,109.0
1731740269.8274803,-560.2519729621708,-1092.5089248060249,-1113.517812807113,-436.0106264841743,110.0
1731740269.8274803,-509.583808362484,-1117.6335727083497,-1132.5539035815746,-493.33955290494487,110.0
1731740269.857692,-582.0742892036214,-1076.6779282935895,-1092.1629840601236,-730.7072631926276,111.0
1731740269.857692,-597.7893488174304,-1092.59120260505,-1110.0621452480555,-548.6152742500417,111.0
1731740269.8584647,-536.0249010492116,-1138.109524965752,-1162.3122875289991,-439.8290643389337,112.0
1731740269.8584647,-568.064623969607,-1125.4873626152985,-1153.3851463347673,-702.781430223491,112.0
1731740269.8590548,-601.3983522746712,-1090.6165354284458,-1110.428655443713,-626.8988601225428,113.0
1731740269.8590548,-535.5835928544402,-1105.665892850142,-1131.8283629901707,-387.70607865648344,113.0
1731740269.871164,-520.4332581339404,-1114.6079936441965,-1129.232872420922,-581.4141968614422,114.0
1731740269.871164,-623.2917266152799,-1105.123607356567,-1118.461960548535,-719.5025229253806,114.0
1731740269.887072,-583.4505723873153,-1117.001529615838,-1131.3758350955322,-454.28377766767517,115.0
1731740269.887072,-520.5117960330099,-1128.8869316750206,-1136.9894249290228,-507.8092258335091,115.0
1731740269.887717,-589.8009225120768,-1106.679405738134,-1113.5252926070243,-745.5546660167165,116.0
1731740269.887717,-608.2797681931406,-1112.1396596734412,-1117.2577127628028,-548.7985293478705,116.0
1731740269.9014008,-519.8498337408528,-1132.05462693749,-1149.6901251785457,-430.68874884722754,117.0
1731740269.9014008,-570.8433696366847,-1131.6581975421868,-1146.3728339178488,-704.8832539985888,117.0
1731740269.9173462,-607.0867401072755,-1094.206839385908,-1106.7672933870926,-622.9981444687583,118.0
1731740269.9173462,-537.1356513360515,-1119.4287246870808,-1137.2624376257882,-395.3541740658693,118.0
1731740269.9177072,-533.186316982843,-1137.96366886748,-1146.3429147182032,-598.0642314641736,119.0
1731740269.9177072,-622.4577289251611,-1114.3536804472096,-1126.6411217516288,-726.9411839372478,119.0
1731740269.9532647,-575.7314188787714,-1119.137012490537,-1136.3499020365998,-457.1186218340881,120.0
1731740269.9532647,-545.307332739234,-1155.945107854437,-1179.4933879254386,-541.7712573311292,120.0
1731740269.9532897,-606.40607831534,-1125.4237843160518,-1148.6429531909525,-765.7950045769103,121.0
1731740269.9532897,-593.9671710627154,-1105.0600290573202,-1126.5251848530024,-546.3152357772924,121.0
1731740269.953307,-526.1253858665004,-1144.8712640856393,-1173.939636491239,-442.99301970144734,122.0
1731740269.953307,-577.605108756572,-1151.5731648062356,-1172.6531109064817,-724.6299257646315,122.0
1731740269.9611416,-612.5619536424056,-1111.9938035751693,-1135.0596365518868,-638.1222998895682,123.0
1731740269.9611416,-513.2489103190601,-1113.5009832573123,-1137.5915488218889,-372.6417616349645,123.0
1731740269.9768455,-507.58670178614557,-1123.755788935814,-1146.3279551183805,-575.5088948314078,124.0
1731740269.9768455,-600.725170282647,-1098.2758505376987,-1124.3410832788795,-713.129733400885,124.0
1731740269.977597,-569.3698490541428,-1110.116373797413,-1139.2558043021709,-441.2016076226719,125.0
1731740269.977597,-521.9441777160391,-1143.6857157996856,-1166.7852078760043,-522.1218229639344,125.0
1731740269.991113,-602.7372364588082,-1122.7011371483095,-1141.1444537797943,-758.0234924689867,126.0
1731740269.991113,-597.987563515082,-1108.4446385172196,-1131.5441305935383,-544.6061014975421,126.0
1731740270.00698,-506.03090340457857,-1140.0168739431538,-1155.9432379044592,-421.3389989580028,127.0
1731740270.00698,-539.3085332103074,-1117.8878859053366,-1126.1250155577436,-676.1122036394663,127.0
1731740270.007722,-589.9093796107918,-1092.1760737099685,-1097.9411294916645,-608.5434311400168,128.0
1731740270.007722,-535.6621307535097,-1124.335473428946,-1140.6246076859534,-389.07114214031026,128.0
1731740270.0213375,-513.9557514106855,-1134.0143345142715,-1143.4931109519675,-583.3402453386225,129.0
1731740270.0213375,-586.5621691504493,-1087.7929109619,-1096.7929802052677,-679.7324267965741,129.0
1731740270.0371156,-545.6140045356005,-1106.137120244559,-1112.384623120539,-410.34369308827445,130.0
1731740270.0371156,-497.95271950028837,-1140.0804522424005,-1154.473457221873,-491.2863478292711,130.0
1731740270.0377133,-567.4774596765637,-1096.6115950574167,-1105.0170202078298,-720.2131039169617,131.0
1731740270.0377133,-570.731172638014,-1087.9051079605706,-1101.1050848541781,-511.8183985860087,131.0
1731740270.0510216,-485.6484486460686,-1123.5725338379852,-1135.321429548785,-394.9764441703446,132.0
1731740270.0510216,-552.2149279573932,-1131.968609238509,-1139.82052919548,-684.4970593401231,132.0
1731740270.0668323,-598.1633388129994,-1102.7674703844823,-1117.4746269602329,-617.0217843395658,133.0
1731740270.0668323,-520.1191065376624,-1126.4522568038665,-1147.8987130997702,-373.1990067283623,133.0
1731740270.0675511,-509.41551286447793,-1128.726115976926,-1136.4247000357136,-574.2448086463846,134.0
1731740270.0675511,-591.2557435948402,-1098.1112949396484,-1105.7724799988791,-688.0985829974525,134.0
1731740270.0810993,-543.2429079636931,-1112.1807985729538,-1128.3839151309803,-421.9299031510018,135.0
1731740270.0810993,-509.40429316461086,-1150.9486015136354,-1169.706069741398,-503.78883338114247,135.0
1731740270.0968213,-583.7422845838591,-1118.1646385020576,-1131.992918588221,-727.1019996353425,136.0
1731740270.0968213,-587.7776366360486,-1113.8226146535017,-1135.9759120410308,-528.603069587145,136.0
1731740270.0974126,-502.6874328441918,-1140.435742738191,-1173.868578392081,-408.60837950883433,137.0
1731740270.0974126,-549.129510493949,-1131.7142960415222,-1147.3377281064168,-678.2850855137222,137.0
1731740270.111296,-603.4814765499905,-1102.071848992724,-1122.9311409955844,-611.2025000085123,138.0
1731740270.111296,-530.8376598106697,-1125.2293095183559,-1151.144946261309,-379.99066504789516,138.0
1731740270.1267364,-527.3857321515679,-1131.691856641788,-1158.8790593696758,-586.4181830021553,139.0
1731740270.1267364,-617.3078866861761,-1111.683391878847,-1134.3266161605716,-710.6539196302183,139.0
1731740270.1274707,-552.9629079485312,-1102.759990584571,-1127.0749501464888,-411.7386757717468,140.0
1731740270.1274707,-509.6960053611547,-1124.5075088269077,-1146.62340721488,-498.2201223471202,140.0
1731740270.1410952,-608.7435157876462,-1119.353926687967,-1140.8041228838265,-752.4248622353189,141.0
1731740270.1410952,-599.5246623968706,-1104.4878243640997,-1128.122122134082,-541.0681561394595,141.0
1731740270.1567552,-508.9181061703712,-1126.1829840070568,-1152.3005753476173,-417.87211169907823,142.0
1731740270.1567552,-543.7403146577999,-1106.4176127412356,-1128.4998520296067,-675.4839004469104,142.0
1731740270.157546,-593.2902491707355,-1089.8872549370863,-1102.2345346407965,-606.7295796615072,143.0
1731740270.157546,-511.7716498365626,-1102.2625838904642,-1125.9118412602693,-365.88376241503283,143.0
1731740270.1710825,-502.62759444490075,-1110.0378358983435,-1127.8528493372723,-570.1421383949928,144.0
1731740270.1710825,-601.8434003693983,-1082.8562430203892,-1101.3743576509878,-695.0286176153459,144.0
1731740270.1868453,-547.9738814076409,-1099.465138723608,-1114.9539343900979,-421.3352590580471,145.0
1731740270.1868453,-513.1254936205223,-1123.250902441796,-1143.0518027571961,-500.79317351663485,145.0
1731740270.187565,-600.5793141843751,-1119.6119797849096,-1129.1805138215423,-746.9533886001445,146.0
1731740270.187565,-585.2382445661351,-1094.666847080458,-1111.1130571356043,-518.5053397067823,146.0
1731740270.200959,-483.51296577136964,-1099.7157120206393,-1121.9251079075038,-381.307109832298,147.0
1731740270.200959,-536.0249010492116,-1095.3849078719504,-1116.8164045680314,-669.1746892216615,147.0
1731740270.2167645,-597.4228386217728,-1093.9113872894086,-1110.671748940833,-613.52123798104,148.0
1731740270.2167645,-532.9469633856788,-1126.7738882000558,-1147.2105715079233,-381.77833722671494,148.0
1731740270.218218,-522.9315113043413,-1129.7246692650951,-1149.3871932821348,-585.614104511682,149.0
1731740270.218218,-595.2462168475613,-1091.349555819761,-1107.825685074553,-680.7721189842559,149.0
1731740270.231276,-529.4613766269758,-1085.2422991921194,-1097.8102329932153,-388.7233314444311,150.0
1731740270.231276,-493.1282485574484,-1109.8583207004704,-1124.999305671081,-477.51603619242087,150.0
1731740270.246734,-578.087555850856,-1097.9130802419968,-1107.7097481759265,-727.1767976344563,151.0
1731740270.246734,-574.4149740943685,-1075.8588902032934,-1094.822052928619,-507.20336204068735,151.0
1731740270.2475345,-481.7888718917966,-1103.8632610714994,-1132.318289884366,-398.48447032878175,152.0
1731740270.2475345,-547.031426618807,-1106.3914334415458,-1120.234673127532,-683.5658242511563,152.0
1731740270.261176,-577.6163284564391,-1074.5686247185804,-1088.5838998025283,-598.0193526647054,153.0
1731740270.261176,-503.40175373572856,-1099.7605908201076,-1119.4717335365713,-360.5955438776873,153.0
1731740270.2768176,-500.07324277516454,-1109.4469317053445,-1128.1258620340377,-569.9850625968538,154.0
1731740270.2768176,-589.3446547174826,-1078.9555273666047,-1096.5573665080592,-685.3048777305521,154.0
1731740270.2775507,-543.1232311651111,-1095.9047539657913,-1109.946208349429,-411.5516807739623,155.0
1731740270.2775507,-508.73859097249806,-1122.8245538468473,-1142.4534187642857,-499.0653397371061,155.0
1731740270.2911716,-553.5650318413973,-1078.2823453745805,-1086.9159044222906,-709.9283790388145,156.0
1731740270.2911716,-570.9069479359314,-1070.6080706655048,-1090.8652387754992,-508.10093803005293,156.0
1731740270.306822,-490.80203078500926,-1110.4118258939125,-1128.7055465271696,-401.85786008881405,157.0
1731740270.306822,-538.6316113183275,-1102.7936496841721,-1121.7455927096307,-679.2051009028219,157.0
1731740270.3074641,-579.2656243368983,-1068.9961737846024,-1088.7110564010218,-589.6569363637827,158.0
1731740270.3074641,-490.6673943866044,-1087.1496481695212,-1101.3556581512094,-343.09281208505854,158.0
1731740270.3213134,-498.0088179996237,-1100.0747424163856,-1118.1552887521684,-570.4936889908276,159.0
1731740270.3213134,-603.2608224526048,-1084.8907485962845,-1099.007000979036,-694.3142967238091,159.0
1731740270.3369029,-546.1301107294858,-1094.7902637789957,-1119.4567739367485,-417.296167105902,160.0
1731740270.3369029,-492.0062785707414,-1113.7739959540777,-1134.3714949600399,-493.33955290494487,160.0
1731740270.3376625,-576.3485023714602,-1086.476466177497,-1106.389563491568,-719.5474017248489,161.0
1731740270.3376625,-593.959691262804,-1094.2741575851105,-1116.472333772108,-527.5708571993746,161.0
1731740270.3510363,-491.59114967565984,-1110.658659290988,-1126.783237949945,-399.9542510113679,162.0
1731740270.3510363,-532.5280945906416,-1096.2600444615819,-1111.6516027292237,-670.5659320051782,162.0
1731740270.3667207,-579.6807532319799,-1081.678174534347,-1098.5843922840431,-602.5147124114446,163.0
1731740270.3667207,-520.9643239276484,-1118.6134264967404,-1132.8456157781184,-378.9472329602577,163.0
1731740270.3675249,-528.0738737434149,-1129.3095403700136,-1151.8891863524914,-608.0796835455112,164.0
1731740270.3675249,-593.1556127723306,-1076.648009093944,-1095.9589825151488,-700.7357049477287,164.0
1731740270.3811762,-541.2832003869116,-1096.4171202597208,-1111.610463829711,-405.5753206447698,165.0
1731740270.3811762,-494.3923347424716,-1120.1729647782631,-1139.9140266943723,-488.8404532582499,165.0
1731740270.3967915,-573.3827617065981,-1104.9253926589154,-1117.231533463113,-720.0822074185126,166.0
1731740270.3967915,-587.3176289414987,-1106.7355042374693,-1123.0134187946096,-517.1888949223794,166.0
1731740270.3975315,-490.0914497934282,-1130.0575203611515,-1142.3449616655707,-394.767009772826,167.0
1731740270.3975315,-529.9026848217472,-1120.1467854785733,-1131.8882013894618,-672.0170131879859,167.0
1731740270.4111636,-576.0941891744733,-1102.468278388027,-1116.3788362732157,-588.2769132801332,168.0
1731740270.4111636,-490.4654397889972,-1114.8735265410505,-1125.7734649619088,-329.0943665509112,168.0
1731740270.4267888,-472.8505109976977,-1113.9460313520394,-1125.010525370948,-536.4194604945369,169.0
1731740270.4267888,-556.0071865124628,-1097.41567354789,-1106.3372048921883,-626.9661783217452,169.0
1731740270.4275284,-509.15745976753533,-1119.2753887888975,-1126.8168970495462,-348.3361518229358,170.0
1731740270.4275284,-432.40723287686706,-1132.27154113492,-1156.7996749943122,-388.99634414119646,170.0
1731740270.44109,-470.5990912243724,-1131.7180359414779,-1148.6915718903765,-535.7836775020696,171.0
1731740270.44109,-539.0056013138965,-1112.2294172723778,-1134.7380051556975,-449.7210997217335,171.0
1731740270.45677,-440.8107880773023,-1126.2577820061706,-1144.21117174346,-332.8006074069999,172.0
1731740270.45677,-500.0470634754747,-1114.480837045703,-1119.4605138367042,-610.5367978163995,172.0
1731740270.4574363,-569.9083946477622,-1099.6409140215255,-1110.0471856482327,-564.857659757603,173.0
1731740270.4574363,-506.15432010311633,-1121.7100636600517,-1140.557289486751,-341.20416260743514,173.0
1731740270.4711187,-498.1322346981615,-1122.2710486534052,-1141.0472163809463,-559.39366592234,174.0
1731740270.4711187,-593.5034234682098,-1097.3894942482002,-1113.9067624025047,-672.2227076855488,174.0
1731740270.486725,-562.6754281334579,-1113.1718720612116,-1141.3912871768698,-416.04330062074587,175.0
1731740270.486725,-517.265562871471,-1136.9164968798868,-1159.0361351678148,-510.9993604957126,175.0
1731740270.4874148,-583.5403299862519,-1103.736104473006,-1122.6768277985975,-726.1894640461542,176.0
1731740270.4874148,-566.1497951922938,-1085.9902791832574,-1101.2434611525387,-487.52026857389137,176.0
1731740270.5010946,-496.33334281947464,-1122.4580436511897,-1140.9163198824972,-401.08744069794193,177.0
1731740270.5010946,-550.6815689755604,-1114.6491325437091,-1129.8536958135664,-677.9933733171783,177.0
1731740270.5166988,-581.4983446104452,-1088.1556812576018,-1112.9194288142025,-580.0678328773938,178.0
1731740270.5166988,-502.39946054760367,-1109.4431918053888,-1129.4460467183962,-349.0654323142953,178.0
1731740270.5174208,-530.2504955176264,-1112.6445461674593,-1138.3657081127167,-614.6731271673925,179.0
1731740270.5174208,-668.4547584801912,-1089.0682168467902,-1107.0814449833706,-792.0827613654546,179.0
1731740270.5310438,-649.7290794020519,-1093.0586900995113,-1114.374249896966,-557.9912034389563,180.0
1731740270.5310438,-622.9813149189577,-1099.3080629254691,-1114.4640074959025,-674.4479481591843,180.0
1731740270.5467432,-691.1335118114948,-1041.4742500106804,-1051.0839229468256,-905.2259547249414,181.0
1731740270.5467432,-657.4744122102857,-1061.1236843778752,-1078.8526801178232,-624.2397912540473,181.0
1731740270.5475636,-545.0530195422471,-1111.7731494777836,-1129.894834713079,-475.2384371194057,182.0
1731740270.5475636,-573.0274712108076,-1094.0946423872374,-1108.3268316686153,-709.0008838498034,182.0
1731740270.5610087,-596.9703107271343,-1077.5119259837084,-1089.6909101894125,-604.7100336854346,183.0
1731740270.5610087,-533.8407994750887,-1122.2186900540255,-1138.3170894132927,-371.1981602520682,183.0
1731740270.576474,-514.4494182048365,-1112.7380436663516,-1126.386808554642,-573.1116189598106,184.0
1731740270.576474,-599.8238543933257,-1094.8201829786412,-1107.3843768797815,-675.2221074500121,184.0
1731740270.591724,-547.7831465099007,-1113.6281398558058,-1128.1370817339048,-408.769195206929,185.0
1731740270.591724,-497.44035320635885,-1125.988509209361,-1136.903407230042,-490.53462793817744,185.0
1731740270.5924368,-595.2387370476499,-1113.2429301603697,-1122.6506484989077,-741.3584982664324,186.0
1731740270.5924368,-585.4476789636537,-1100.998497705441,-1119.3819759376347,-520.0835774880834,186.0
1731740270.606705,-492.1334351692349,-1116.350787023548,-1136.9894249290228,-401.79054188961163,187.0
1731740270.606705,-536.671903741546,-1096.3385823606513,-1115.518659283407,-668.5875249286182,187.0
1731740270.607414,-590.5152434036136,-1081.158328440506,-1098.9621221795678,-589.4699413659982,188.0
1731740270.607414,-514.2960823066533,-1102.5019374876283,-1129.098236022517,-354.0095800557174,188.0
