timestamps,TP9,AF7,AF8,TP10,Right AUX
1731822242.9777873,-6.630842621438205,-58.43967670761049,-12.539884551428258,-34.758630188181996,102.0
1731822242.9777873,-12.629642150364816,-19.76537126582116,-18.785517477430403,-12.764278548769653,102.0
1731822243.0087051,15.890834911726415,-62.07485946454108,8.152981903403997,-41.292235410772264,103.0
1731822243.0087051,-20.51709115691483,-83.29505181312561,-20.58440935611725,-58.125525111332536,103.0
1731822243.009348,-14.338776430115104,-53.81342046242207,-16.582716403529048,-35.218637882731855,104.0
1731822243.009348,19.522277768701315,-42.96771059092134,16.84824930038303,-39.32504803407937,104.0
1731822243.0101674,-17.629888391122222,-109.59776820149273,-12.45760675240308,-90.1914273314178,105.0
1731822243.0101674,-12.84655634779483,-50.56718730088323,-1.2827856848016381,-49.46391681395471,105.0
1731822243.0108936,24.301869912073016,-35.11766058392823,22.345902235247195,-52.39225847925991,106.0
1731822243.0108936,6.731819920241833,-68.27561359107494,13.422500940971076,-65.99053471814841,106.0
1731822243.0215545,8.672827997244895,-44.833920668810606,11.717106561176479,-36.7594766644761,107.0
1731822243.0215545,38.883739839307964,-18.684540178626776,22.454359333962202,-42.429164997301996,107.0
1731822243.0530531,55.07002684753388,-50.8028009980917,25.681892995722592,-40.443278120830655,108.0
1731822243.0530531,30.865394334308803,-81.91128882952034,9.136575591750443,-45.85491335671395,108.0
1731822243.0536659,43.78300878126174,-64.60677173454314,24.025117315351963,-36.15361287165433,109.0
1731822243.0536659,59.45318959560245,-54.43050395511091,44.38887257408351,-41.36703340988606,109.0
1731822243.0543976,26.50467098597437,-83.78871860727668,14.215359731577337,-68.93009608332068,110.0
1731822243.0543976,49.16472481749952,-15.973112710751593,32.357614416629076,-26.21295878943056,110.0
1731822243.066579,41.202477811835706,4.716013844124973,24.844155405648053,-45.282708663493395,111.0
1731822243.066579,36.65101956576109,-45.664178458973765,22.854528629221022,-57.53462091833353,111.0
1731822243.082307,34.033089596778154,-17.77948438934982,18.04127738624811,-40.92946511507034,112.0
1731822243.082307,36.056375472806394,9.544224686920643,23.198599425144494,-35.89181987475604,112.0
1731822243.0830045,52.81112727429718,-7.135729115456343,35.06904188450426,-43.15470558870584,113.0
1731822243.0830045,25.973605192266405,-32.361354316584766,-0.1645555980503559,-36.50516346748918,113.0
1731822243.0966413,36.76321656443179,-11.395475164987147,19.28292417153716,-29.926679445430636,114.0
1731822243.0966413,42.040215401910245,-12.143455156125128,27.4209464751184,-33.33372830506414,114.0
1731822243.112302,25.592135396786034,-46.67769134696573,2.4084955714643,-49.314320815727115,115.0
1731822243.112302,33.92463249806315,-15.210173119790852,11.574990362860262,-35.1288802837953,115.0
1731822243.1129217,32.10330121964216,-12.0424778573215,27.607941472902894,-32.761523611843586,116.0
1731822243.1129217,13.463639840483665,-77.37479018326849,6.069857628084719,-70.70654856227338,116.0
1731822243.1265512,12.113535956479609,-61.04638697672635,4.83195074275136,-59.44196989573538,117.0
1731822243.1265512,27.895913769491017,-17.207279696129262,18.51624468062073,-44.74042316991836,117.0
1731822243.1422656,29.919199645519257,-57.52714111842215,16.410681005567312,-77.87593677733094,118.0
1731822243.1422656,37.54485565517098,-47.80340123362839,11.803124260157347,-52.63909187633544,118.0
1731822243.142979,20.92848015204072,-39.08569443691522,5.183501338586211,-57.85625231452286,119.0
1731822243.142979,24.425286610610783,-54.05277405958623,17.68598689045757,-75.31410530768335,119.0
1731822243.1565597,7.105809915810823,-71.74250084999949,0.011219699867069721,-83.59798370953649,120.0
1731822243.1565597,25.74921119492501,-50.885078797116876,16.53783760406077,-68.20455549191684,120.0
1731822243.1722395,36.381746768951416,-19.2679645717144,27.282570176757872,-58.6191919054836,121.0
1731822243.1722395,43.48007688485086,-51.04589449521154,29.500330850481987,-81.47372053470463,121.0
1731822243.1729734,18.89023467618972,-42.859253492206335,6.8627164186909795,-73.19732193276286,122.0
1731822243.1729734,37.14094645995647,-20.737745254300535,29.302116152830422,-59.21009609848261,122.0
1731822243.1865919,37.82908805180341,-46.894605544395745,23.897960716858506,-70.71776826214045,123.0
1731822243.1865919,24.855375105515122,-63.97098874207586,12.304270854219794,-81.98982672858983,123.0
1731822243.202294,23.954059216193855,-39.239030335098505,11.993859157897532,-79.32701796013862,124.0
1731822243.202294,75.01491331122816,-33.71145820058882,58.192843310534954,-71.63030385132879,124.0
1731822243.2030752,31.04490953218192,-65.96435541845858,20.662947255186737,-77.60292408056557,125.0
1731822243.2030752,28.340961864218116,-45.237829864025116,12.86525584757328,-77.0008001876995,125.0
1731822243.2165532,48.82813382148743,-16.021731410175562,31.519876826554537,-69.19936888013035,126.0
1731822243.2165532,46.18028465285897,-53.44691026676446,25.40888029895723,-86.89657547045499,126.0
1731822243.2322075,22.746071530506015,-48.78325502201915,-9.24877259042114,-69.4424623772502,127.0
1731822243.2322075,23.583809120580554,-47.19753744080663,17.27085799537599,-83.9270949056372,127.0
1731822243.2329288,43.42023848555982,-60.620038381777704,48.19235082902014,-79.28587906062603,128.0
1731822243.2329288,13.605756038799882,-83.95327420532703,25.82400919403881,-86.52632537484169,128.0
1731822243.2466333,20.8985609523952,-46.060607854276896,44.37017307430506,-77.92081557679921,129.0
1731822243.2466333,18.89023467618972,-45.95963055547327,50.922477796673775,-82.68170822039247,129.0
1731822243.2622173,23.879261217080057,-57.13071172311902,43.60723348334432,-78.81839156616479,130.0
1731822243.2622173,0.684401691891253,-63.24918805062771,30.869134234264493,-91.27973821852356,130.0
1731822243.262952,31.912566321901977,-33.30006920546293,61.89160436671227,-78.71741426736116,131.0
1731822243.262952,34.73619078844786,-73.82562512531877,61.13240467570722,-92.36804910562932,131.0
1731822243.276579,19.189426672644913,-96.68763355445117,44.504809472709894,-117.03268931340426,132.0
1731822243.276579,30.353028040379286,-58.46211610734463,59.18017689883709,-93.83034998830408,132.0
1731822243.292241,28.714951859787107,-91.3769756173715,57.399984519928694,-115.01314333733171,133.0
1731822243.292241,13.774051536805928,-107.40618682745844,42.59372059535235,-117.22716411110014,133.0
1731822243.2929215,20.202939560636878,-77.4421083824709,55.27572134509683,-106.67690633609891,134.0
1731822243.2929215,44.65814537089318,-79.21482096146792,66.61883791070431,-105.02761045563966,134.0
1731822243.3065906,29.189919154159725,-94.26043848320842,51.760215386748314,-97.60764894355088,135.0
1731822243.3065906,33.32250860519707,-69.0310733821243,49.58359361253679,-88.08212375640869,135.0
1731822243.3227599,46.27004225179553,-53.66008456423879,72.24738734401762,-95.53948426805437,136.0
1731822243.3227599,40.10668712481856,-70.108164569363,73.02528653480113,-88.16814145538956,136.0
1731822243.322955,18.15347438491881,-77.31495178397745,45.49588296096772,-98.64360123127699,137.0
1731822243.322955,30.54376293811947,-48.7645555222407,54.78953435085714,-96.7100729541853,137.0
1731822243.3365312,37.56729505490512,-50.21937660500407,62.78918035607785,-80.14605605043471,138.0
1731822243.3365312,17.390534793958068,-77.13169668614864,36.808095363900065,-94.99719877447933,138.0
1731822243.3522377,32.54834931436926,-45.73897645808756,58.86976520251483,-86.30567127745599,139.0
1731822243.3522377,40.94068481493741,-50.944917196407914,76.72404759097844,-95.26273167133331,139.0
1731822243.3529687,30.18847244232893,-74.54742581676692,46.65525194723159,-90.17646773159504,140.0
1731822243.3529687,24.055036514997482,-52.130465482361615,39.661639030091465,-79.87678325362504,140.0
1731822243.366638,31.482477826997638,-37.95250475034118,56.30419383291155,-78.74733346700668,141.0
1731822243.366638,16.90434779971838,-67.93528269510716,39.74765672907233,-87.51739886309952,141.0
1731822243.3823695,10.602616374380887,-75.45248160604388,29.507810650393367,-98.9353134278208,142.0
1731822243.3823695,18.789257377386093,-40.402139221318066,24.11487491428852,-81.31664473656565,142.0
1731822243.3829625,28.94682565703988,-52.61291257664561,48.925371220335364,-72.72235463839024,143.0
1731822243.3829625,5.127402839250863,-87.95122725795954,41.77094260510057,-89.40604834072292,143.0
1731822243.3965657,4.757152743637562,-32.791442811489105,49.01886871922761,-58.967002601362765,144.0
1731822243.3965657,15.66270101442933,-49.59855321235955,59.9543361896649,-77.30747198406607,144.0
1731822243.4286058,-6.518645622767508,-77.54308568127453,42.32070789858699,-78.5191995697096,145.0
1731822243.4286058,7.307764513418078,-63.09211225248873,48.74211612250656,-79.01286636386067,145.0
1731822243.4292932,15.595382815226912,-40.480677120387554,62.24689486250281,-71.17029615677893,146.0
1731822243.4292932,13.24672564305365,-68.27935349103063,55.731989139690995,-75.83769130147994,146.0
1731822243.4300475,-2.4346748711541295,-70.87110416032374,42.481523596681654,-84.44320109952241,147.0
1731822243.4300475,13.931127334944904,-40.66393221821636,57.362585520371795,-78.48554047010839,147.0
1731822243.4308093,9.862116183154285,-61.368018372915685,46.471996849402785,-83.78871860727668,148.0
1731822243.4308093,-7.606956509873271,-88.3364369533956,30.6073412373662,-93.27684479486197,148.0
1731822243.4415345,4.686094644479454,-45.331327362917364,54.0265947598964,-79.6673488561064,149.0
1731822243.4415345,12.48378605209291,-50.78410149831325,56.20695643406361,-74.75312031432986,149.0
1731822243.4730797,-2.1841015741229057,-83.14545581489801,38.53966904338449,-90.57289712689817,150.0
1731822243.4730797,2.580530969426036,-71.18525575660169,33.71145820058882,-82.21048082597554,150.0
1731822243.4737527,13.082170045003295,-33.5356829026714,46.920784844085574,-68.96375518292189,151.0
1731822243.4737527,5.400415536016226,-64.38611763715744,39.78505572862923,-71.86965744849294,151.0
1731822243.47451,-12.04995765723288,-72.08657164592296,25.984824892133474,-84.57409759797156,152.0
1731822243.47451,4.233566749840975,-39.52326273173094,35.11766058392823,-63.86627154331654,152.0
1731822243.4867227,4.790811843238771,-43.06868788972497,37.53363595530391,-55.735729039646685,153.0
1731822243.4867227,-9.589103486388922,-88.61692945007235,16.219946107827127,-83.81115800701082,153.0
1731822243.5025756,-9.446987288072705,-47.78844163380563,24.20837241318077,-63.48106184788048,154.0
1731822243.5025756,4.656175444833934,-47.89689873252064,42.63485949486494,-59.64018459338695,154.0
1731822243.5032957,6.746779520064592,-74.80547891370952,34.3135820934549,-73.79570592567325,155.0
1731822243.5032957,-3.979253552854061,-46.124186153523624,32.21923811826855,-54.32578675635159,155.0
1731822243.5169344,18.232012283988297,-30.412866439670324,45.78759515751153,-54.176190758123994,156.0
1731822243.5169344,-5.419115035794675,-71.14785675704479,25.592135396786034,-72.13519034534693,156.0
1731822243.532514,-18.688280078582466,-67.68844929803163,17.29703729506582,-72.07909184601158,157.0
1731822243.532514,0.40764909517019987,-37.02500956133008,27.82111577037722,-62.90137735474855,157.0
1731822243.533291,25.479938398115337,-38.29657554626465,45.04709496628493,-52.482016078196466,158.0
1731822243.533291,8.594290098175406,-68.20829539187253,29.41431315150112,-67.32567900232971,158.0
1731822243.5636864,23.467872221954167,-35.211158082820475,51.84249318577349,-52.70641007553786,159.0
1731822243.5636864,7.277845313772559,-37.06988836079836,45.623039559461176,-55.05880714766681,159.0
1731822243.5643835,-7.681754508987069,-78.27984597254544,23.37063482310623,-82.52463242225349,160.0
1731822243.5643835,-3.066717963665724,-47.98291643150151,21.519384345039725,-64.15798373986036,160.0
1731822243.565148,8.02956520486623,-29.466671750880778,40.19644472375512,-62.8826778549701,161.0
1731822243.565148,12.139715256169438,-62.33291256148368,38.56210844311863,-64.79002683237195,161.0
1731822243.576696,-6.305471325293183,-65.12287792842835,17.7121661901474,-78.77351276669651,162.0
1731822243.576696,23.262177724391222,-36.882893363013864,48.80943432170898,-62.220715562812984,162.0
1731822243.6078503,1.3875028835609555,-52.24266248103231,38.51722964365035,-66.77591370884329,163.0
1731822243.6078503,-17.555090392008424,-78.18260857369751,11.459053464233875,-84.1140899034217,163.0
1731822243.6084356,14.148041532374918,-42.507702896371484,24.567402808927,-72.02673324663192,164.0
1731822243.6084356,22.817129629664123,-32.20801841840148,33.39730660431087,-59.59530579391867,164.0
1731822243.6394043,6.406448624096811,-84.75735269580036,11.548811063170433,-96.91576745174825,165.0
1731822243.6394043,39.246510135009885,-42.13745280075818,30.801816035062075,-62.42267016042024,165.0
1731822243.6400335,57.17185062263161,-9.110396292060614,45.07701416593045,-46.25134275201708,166.0
1731822243.6400335,43.633412783034146,-64.09440544061363,34.66887258924544,-68.94879558309913,166.0
1731822243.6408887,36.467764467932284,-62.42267016042024,25.038630203343928,-75.57963820453733,167.0
1731822243.6408887,42.94153129123151,-30.24831084161997,33.46462480351329,-56.80908032692969,167.0
1731822243.6416852,46.59167364798486,-40.001969926059246,37.634613254107535,-53.59650626499206,168.0
1731822243.6416852,34.844647887162864,-74.82791831344366,20.217899160459638,-75.49736040551215,168.0
1731822243.6521015,27.73135817144066,-36.98761056177318,22.716152330860496,-67.65105029847473,169.0
1731822243.6521015,53.17015767004341,-17.3419160945341,35.992797173559666,-36.1274335719645,169.0
1731822243.6672845,32.18557901866734,-79.1475027622655,20.244078460149467,-81.52607913408428,170.0
1731822243.6672845,28.58779526129365,-54.74091565143317,14.039584433659911,-60.22734888643026,170.0
1731822243.6681008,40.080507825128734,-31.8302885228768,40.20766442362219,-43.207064188085496,171.0
1731822243.6681008,47.38079253863543,-62.42641006037593,39.94213152676821,-59.59156589396298,171.0
1731822243.6823552,30.17725274246186,-53.0990995708853,15.561723715625703,-55.343039544299245,172.0
1731822243.6823552,39.82993452809751,-7.913628306239843,35.12140048388392,-39.91595222707838,172.0
1731822243.6830072,23.33323582354933,-39.224070735275745,26.687926083803177,-51.19923039339483,173.0
1731822243.6830072,5.606110033579171,-62.946256154216826,8.05200460460037,-64.96580213028938,173.0
1731822243.6966765,30.263270441442728,-20.87612155266106,22.727372030727565,-48.113812929950655,174.0
1731822243.6966765,43.52495568431914,-19.641954567283392,40.428318521007895,-34.28366289380938,174.0
1731822243.7123544,33.195352006703615,-76.8512041894719,31.04490953218192,-71.34607145469636,175.0
1731822243.7123544,26.97963828034699,-72.35210454277694,20.9359599519521,-76.91478248871863,175.0
1731822243.7131047,26.441092686727643,-40.37222002167255,32.49973061494529,-60.72849548049271,176.0
1731822243.7131047,44.878799468278885,-76.331358095631,38.808941840194166,-85.45671398751438,176.0
1731822243.7266572,19.462439369410276,-69.67433617450297,23.77454401832074,-78.68375516775995,177.0
1731822243.7266572,26.055882991291583,-40.95564441476017,30.92523273359984,-70.15304336883128,177.0
1731822243.7424772,33.42722580395639,-59.70376289263368,42.28704879898578,-68.26439389120787,178.0
1731822243.7424772,25.438799498602748,-105.54371664952487,30.11367444321513,-89.58556353859603,178.0
1731822243.7430933,38.10210074856877,-76.68290869146585,29.616267749108374,-76.50339349359274,179.0
1731822243.7430933,51.98460938408971,-54.46042315475643,48.80569442175329,-47.98291643150151,179.0
1731822243.7566235,27.106794878840446,-116.19869162328541,33.70771830063313,-102.54805678501725,180.0
1731822243.7566235,27.978191568516195,-93.81165048852563,39.01463633775711,-99.28686402365565,180.0
1731822243.7724717,48.56634082458913,-30.816775634884834,49.63969211187214,-54.157491258345544,181.0
1731822243.7724717,40.54799531958997,-83.72514030802995,38.76780294068158,-90.73745272494853,181.0
1731822243.7731009,21.208972648717463,-80.0749979512766,25.027410503476858,-85.12012299150229,182.0
1731822243.7731009,45.11441316548735,-23.647387419827282,45.36872636247426,-51.3937051910907,182.0
1731822243.7866588,41.55776830762625,-47.06664094235748,40.7237706175074,-69.18814918026328,183.0
1731822243.7866588,21.081816050224006,-67.56503259949386,20.760184654034674,-70.61305106338114,183.0
1731822243.8024685,12.86525584757328,-38.10584064852446,20.633028055541217,-56.79412072710693,184.0
1731822243.8024685,31.216944930143654,-18.187133484520018,40.102947224862874,-37.49623695574701,184.0
1731822243.8031025,21.410927246324718,-59.17269709892571,24.372928011231124,-62.81535965576768,185.0
1731822243.8031025,14.821223524399102,-44.1682184766978,21.78117734193802,-59.21009609848261,185.0
1731822243.816681,30.513843738473952,0.07105809915810823,28.52795686200261,-26.94971908070147,186.0
1731822243.816681,27.589241973124444,-50.514828701503575,26.067102691158652,-52.74754897505045,186.0
1731822243.8325748,10.628795674070716,-44.444971073418856,8.42973450012505,-49.347979915328324,187.0
1731822243.8325748,8.182901103049517,-15.187733720056713,5.351796836592257,-34.33976139314473,187.0
1731822243.833092,8.758845696225762,-57.14941122289747,12.221993055194616,-58.05072711221874,188.0
1731822243.833092,4.547718346118927,-78.16764897387475,7.741592908278108,-63.89619074296206,188.0
1731822243.84668,6.664501721039414,-37.48501725587994,8.897221994586289,-40.23758362326771,189.0
1731822243.84668,23.950319316238165,-33.33746820501983,20.50213155709207,-45.59312035981566,189.0
1731822243.8624797,19.496098469011486,-73.15992293320596,4.82447094283998,-64.55441313516349,190.0
1731822243.8624797,12.46134665235877,-57.28030772134662,4.985286640934646,-65.16775672789663,190.0
1731822243.8631375,24.55992300901562,-4.42430164758116,19.133328173309565,-27.40224697533995,191.0
1731822243.8631375,24.657160407863557,-58.34617920871824,21.223932248540223,-76.32013839576393,191.0
1731822243.8765936,20.797583653591573,-47.48176983743906,13.321523642167449,-70.6242707632482,192.0
1731822243.8765936,26.19051938969642,1.6455559805035591,21.096775650046766,-30.468964939005673,192.0
1731822243.892547,26.729064983315766,-33.26267020590603,23.583809120580554,-56.33037313260138,193.0
1731822243.892547,21.945732939988375,-70.92720265965909,22.12524813786149,-85.44175438769162,193.0
1731822243.8931808,25.887587493285537,-17.517691392451525,20.270257759839296,-48.547641324810684,194.0
1731822243.8931808,47.691204234957695,-16.803370500914752,37.8328279517591,-48.139992229640484,194.0
1731822243.9066715,27.39850707538426,-76.7016081912443,29.709765248000622,-75.25052700843662,195.0
1731822243.9066715,35.4243323802948,-49.88278560899198,27.626640972681344,-61.70086946897209,195.0
1731822243.922344,45.14059246517718,-21.530604044906795,40.15156592428684,-38.427472044713795,196.0
1731822243.922344,26.50093108601868,-77.3336512837559,27.42468637507409,-70.89354356005788,196.0
1731822243.923048,29.78456324711442,-50.61954590026289,26.684186183847487,-59.352212296798825,197.0
1731822243.923048,41.277275810949504,-3.388349359855056,45.19295106455684,-28.808449358679354,197.0
1731822243.9366343,48.01283563114703,-49.99498260766268,36.69963826518506,-65.05555972922593,198.0
1731822243.9366343,37.76924965251237,-94.14450158458203,30.390427039936185,-78.16016917396337,198.0
1731822243.9523735,29.137560554780066,-45.256529363803566,29.552689449861646,-54.82693335041404,199.0
1731822243.9523735,50.57466710079461,-22.88070792891085,47.706163834780455,-31.972404721193016,199.0
1731822243.9529748,33.599261201918125,-68.11105799302459,24.16349361371249,-61.87664476688951,200.0
1731822243.9529748,15.66270101442933,-54.44172365497798,16.84450940042734,-66.02045391779393,200.0
1731822243.967342,-951.8924263720401,-414.99051878321916,-1029.5215297522955,-432.93081887066364,0.0
1731822243.96794,-959.8883324773051,-472.7046548994258,-1042.225969901774,-476.380976555869,101.0
1731822243.96794,-979.8481785408221,-470.1503032296896,-1055.035127250012,-470.2625002283603,101.0
1731822243.9817533,-960.8607064657845,-417.2082794569433,-1041.0628610155545,-430.0174368051812,102.0
1731822243.9817533,-955.5650081285276,-469.32004543952644,-1039.7651157309301,-468.0297799548134,102.0
1731822243.9973915,-974.3393059060909,-492.9300338597968,-1041.6014066091739,-475.20664796978235,103.0
1731822243.9973915,-998.7496329168789,-458.6912497654557,-1053.2885939707048,-460.2133890474215,103.0
1731822243.9979932,-947.5728419232182,-454.2220693184063,-1034.6788517911918,-457.45708278007805,104.0
1731822243.9979932,-948.3619608138688,-487.8998684193939,-1036.7357967668213,-469.20784844085574,104.0
1731822244.0115767,-955.4116722303443,-468.83385844528675,-1052.06938658515,-457.16537058353424,105.0
1731822244.0115767,-956.0137961232103,-433.74985696095973,-1037.2145039611496,-440.440537981689,105.0
1731822244.0274532,-964.6604448207654,-488.69646710995585,-1049.765608212445,-469.6977753350511,106.0
1731822244.0274532,-970.3712720531039,-471.54154601320624,-1052.2339421832003,-461.30543983448297,106.0
1731822244.0279756,-949.1735191042535,-408.92440105509013,-1035.9691172759049,-411.44135372526944,107.0
1731822244.0279756,-959.9182516769506,-460.83421244006604,-1039.2527494370006,-456.4660092918202,107.0
1731822244.0417075,-965.9768896051683,-471.8145587099716,-1053.516727868002,-461.0324271377176,108.0
1731822244.0417075,-948.6312336106785,-405.73052649293095,-1041.623846008908,-414.80726368539035,108.0
1731822244.0575843,-957.4125187066384,-419.6915730275214,-1044.410071475897,-434.7259708493948,109.0
1731822244.0575843,-970.4759892518632,-469.2153282407671,-1049.7843077122234,-461.9674021266401,109.0
1731822244.05807,-970.9771358459257,-432.8747203713283,-1058.374857910443,-438.48831020481884,110.0
1731822244.05807,-967.9253774820827,-410.87288893200457,-1046.3585593528114,-438.41725210566074,110.0
1731822244.0716872,-965.3485864126123,-458.72490886505693,-1047.3309333412908,-447.59870649687946,111.0
1731822244.0716872,-982.7166818068363,-460.931449838914,-1061.6958890710957,-460.6247780425474,111.0
1731822244.0875897,-981.48999462137,-415.9404533719644,-1058.341198810842,-440.5527349803597,112.0
1731822244.0875897,-974.3430458060466,-455.45997620373964,-1055.663430442568,-459.79078035242856,112.0
1731822244.0879517,-989.6504563246854,-487.40620162524283,-1067.904122997541,-477.7049011401832,113.0
1731822244.0879517,-982.0434998148121,-432.40723287686706,-1066.9055697093718,-446.7946280064061,113.0
1731822244.1018865,-974.6796368020587,-453.04774073231965,-1065.1141576305963,-467.805385957472,114.0
1731822244.1018865,-992.8368510869332,-507.3922269884497,-1070.0770048717968,-498.6782600916922,114.0
1731822244.1177013,-983.5656390967779,-461.4812151324004,-1054.9902484505437,-463.7700339052826,115.0
1731822244.1177013,-970.7116029490717,-439.3297876948491,-1041.5116490102373,-454.52500121481717,115.0
1731822244.1184127,-964.9147580177523,-471.9005764089525,-1049.1410449198447,-472.6373367002234,116.0
1731822244.1184127,-992.0290326965041,-481.09699039999396,-1070.4734342671,-483.4867864716798,116.0
1731822244.1318653,-970.3189134537242,-426.00452415272593,-1043.6097328853793,-450.7364825597033,117.0
1731822244.1318653,-966.4069781000726,-458.3957976689562,-1042.2596290013753,-478.0078330365941,117.0
1731822244.1476638,-995.757712952327,-497.7507649026811,-1070.8848232622258,-498.1658937977627,118.0
1731822244.1476638,-958.6130265924148,-426.33737524878234,-1034.7947886898182,-445.04061492718756,118.0
1731822244.1483097,-933.3051235922612,-445.49314282182604,-1004.2846848513,-466.72455487027764,119.0
1731822244.1483097,-950.3216683906503,-493.5583370523527,-1018.2120722862892,-496.22114582080394,119.0
1731822244.1783652,-923.9142348035239,-439.210110896267,-1007.5309180128388,-444.4347511343658,120.0
1731822244.1783652,-911.8717569462024,-423.5324502820149,-990.3348580165766,-446.3234006119892,120.0
1731822244.1791725,-924.7744117933325,-476.3024386567995,-999.9127418030985,-470.5878715245053,121.0
1731822244.1791725,-930.0140116312541,-466.4777214732021,-1002.8934420677833,-462.0384602257982,121.0
1731822244.2095976,-934.501891578082,-435.10744064487517,-1011.9253004607745,-438.3274945067242,122.0
1731822244.2095976,-934.9058007732965,-461.7355283293873,-1008.3088172036223,-464.1552436007187,122.0
1731822244.210267,-962.9737499407493,-492.2306725680828,-1031.3802600302733,-484.2609457625076,123.0
1731822244.210267,-956.814134713728,-440.9529042756185,-1030.1610526447184,-449.34523977618665,123.0
1731822244.2114558,-944.1059546642937,-444.999476027675,-1022.580275434535,-458.8071866640821,124.0
1731822244.2114558,-959.3273474839516,-484.4217614606023,-1029.648686350789,-482.4583139838651,124.0
1731822244.211759,-967.8019607835449,-438.402292505838,-1036.6086401683278,-446.7946280064061,125.0
1731822244.211759,-965.4271243116818,-428.44667882379144,-1029.0877013574354,-455.68063030112535,125.0
1731822244.2216358,-974.8965509994887,-478.16490883473307,-1045.6255389614962,-491.2620384795591,126.0
1731822244.2216358,-976.2279553837143,-455.0411074087024,-1048.7707948242314,-464.01686730235815,126.0
1731822244.2374785,-952.6591058629565,-416.83802936133,-1031.0436690342613,-446.63755220826715,127.0
1731822244.2374785,-973.7745810127817,-462.90985691547394,-1040.2438229252584,-470.5467326249927,127.0
1731822244.2379932,-976.6991827781312,-479.9413613136858,-1049.2644616183825,-475.42730206716806,128.0
1731822244.2379932,-972.8844848233275,-429.33303511328995,-1038.8600599416532,-445.52680192142725,128.0
1731822244.2519684,-953.0405756584369,-435.990057034418,-1023.7097252211533,-448.93759068101645,129.0
1731822244.2519684,-969.8738653589971,-489.4145279014483,-1044.1258390792646,-480.2966518094763,129.0
1731822244.2676291,-977.5406602681614,-449.19190387800336,-1047.3010141416453,-442.0299954628572,130.0
1731822244.2676291,-957.0235691112466,-427.5266634346917,-1033.1118337097578,-445.167771525681,130.0
1731822244.268254,-972.1178053324111,-477.0728580476716,-1047.1551580433734,-468.68800234701484,131.0
1731822244.268254,-979.7733805417083,-460.44900274463,-1054.0477936617099,-457.8048934759572,131.0
1731822244.28194,-972.4020377290435,-443.237983148545,-1040.4382977229543,-451.2974675530568,132.0
1731822244.28194,-953.3509873547591,-458.68750986550003,-1019.1096482756548,-457.0980523843318,132.0
1731822244.297629,-968.7406756724231,-477.94425473734736,-1047.9966355334036,-467.3790373625234,133.0
1731822244.297629,-956.7019377150573,-436.689418326132,-1037.6857313555665,-447.2022771015763,133.0
1731822244.2985108,-943.6235075700097,-445.67265801969916,-1025.1757660037838,-451.2114498540759,134.0
1731822244.2985108,-974.2271089074202,-491.7444855738431,-1043.890225382056,-483.89443556685,134.0
1731822244.3119876,-956.4588442179374,-433.2150512672961,-1036.414165370632,-435.3841932415962,135.0
1731822244.3119876,-945.8038692441769,-424.11213477514684,-1022.8420684314333,-443.286601847969,135.0
1731822244.3274922,-962.1621916503645,-473.12726359441876,-1037.5772742568515,-475.3786833677441,136.0
1731822244.3274922,-979.8967972402461,-455.5946126021445,-1054.91545045143,-456.75024168845266,136.0
1731822244.3280902,-967.5401677866466,-424.66937986854464,-1038.9498175405897,-447.11625940259546,137.0
1731822244.3280902,-954.7796291378327,-459.16621705982834,-1034.1926647969522,-466.16730977687985,137.0
1731822244.3417645,-964.9708565170877,-474.68680187594146,-1050.812780200038,-468.60946444794536,138.0
1731822244.3417645,-960.8345271660946,-438.4658708050847,-1045.5694404621609,-447.71464339550585,138.0
1731822244.3573835,-944.5397830591537,-435.51882964000106,-1023.111341228243,-450.57192696165293,139.0
1731822244.3573835,-972.9405833226629,-494.17168064508587,-1042.0651542036794,-482.4096952844411,139.0
1731822244.3579628,-978.0866856616922,-449.20312357787043,-1052.3984977812506,-453.34319282881916,140.0
1731822244.3579628,-952.7002447624691,-430.9823309937492,-1027.2626301790588,-454.12109201960266,140.0
1731822244.37158,-961.2047772617079,-490.6748741865158,-1029.4392519532703,-490.44300038926303,141.0
1731822244.37158,-968.3180669774301,-449.46117667481303,-1040.4981361222453,-448.7730350829661,141.0
1731822244.3873217,-950.8153351848014,-438.4733506049961,-1024.01639701752,-451.67893734853715,142.0
1731822244.3873217,-955.4341116300784,-476.64650945272297,-1029.4504716531374,-470.96560142003,142.0
1731822244.3879254,-977.1517106727697,-493.8612689487636,-1048.7670549242757,-469.6341970358044,143.0
1731822244.3879254,-975.2032227958553,-445.4407842224464,-1044.6606447729282,-448.5748203853145,143.0
1731822244.4016058,-961.4291712590493,-436.423885429278,-1031.167085732799,-446.9217846048996,144.0
1731822244.4016058,-980.8953505284153,-486.6844009337947,-1047.1663777432404,-468.3701108507812,144.0
1731822244.4173584,-965.8534729066305,-427.2760901376605,-1032.1955582206137,-425.5706957578659,145.0
1731822244.4173584,-940.0032844129018,-419.0819693347439,-1018.1372742871754,-431.25534369051456,145.0
1731822244.417876,-959.2787287845276,-477.20375454612076,-1033.7064778027125,-465.8232389809564,146.0
1731822244.417876,-980.6859161308967,-482.54433168284595,-1052.5406139795668,-465.1014382895082,146.0
1731822244.4482849,-962.6296791448258,-443.1706649493426,-1029.2709564552642,-452.2586218416691,147.0
1731822244.4482849,-960.1202062745579,-483.6476021697745,-1028.2424839674495,-480.0086795128882,147.0
1731822244.4489229,-967.4317106879316,-485.3380369497463,-1032.9958968111314,-472.76075339876115,148.0
1731822244.4489229,-961.9976360523142,-456.8100800877437,-1033.9121723002754,-468.9722347436473,148.0
1731822244.449706,-938.1819531344809,-451.64153834898025,-1014.58436932927,-458.7660477645695,149.0
1731822244.449706,-966.2648619017564,-498.39776759501547,-1038.3140345481224,-485.3754359493032,149.0
1731822244.461665,-981.27308042394,-488.3486564140767,-1053.0978590729646,-473.65458948817104,150.0
1731822244.461665,-957.9735036999919,-485.2221000511199,-1017.6099483934231,-472.955228196457,150.0
1731822244.4776664,-940.1080016116612,-515.8257013885304,-1015.717559015844,-488.95452020689845,151.0
1731822244.4776664,-956.440144718159,-481.4111419962719,-1028.0180899701081,-468.6319038476795,151.0
1731822244.4780807,-931.2593983164988,-446.26730211265385,-1002.945800667163,-457.49822167959064,152.0
1731822244.4780807,-946.6490866341628,-478.10133053548634,-1008.0582439065911,-472.9253089968115,152.0
1731822244.4918263,-963.2654621372931,-467.9288026560098,-1031.8589672246017,-451.7312959479168,153.0
1731822244.4918263,-946.1778592397459,-443.2192836487666,-1013.028570947703,-451.2077099541202,153.0
1731822244.5074742,-947.8121955203824,-444.03832173906267,-1005.406654838007,-449.8389065703377,154.0
1731822244.5074742,-967.6000061859377,-468.87125744484365,-1033.482083805371,-453.6910035246983,154.0
1731822244.508418,-968.2283093784936,-434.25474345497787,-1042.3867855998687,-440.4667172813788,155.0
1731822244.508418,-948.1936653158627,-413.5618770001456,-1022.6326340339147,-425.91850645374507,155.0
1731822244.521674,-967.9627764816396,-463.4858015086502,-1036.7806755662896,-453.0028619328514,156.0
1731822244.521674,-979.608824943658,-439.7748357895762,-1051.9384900867008,-432.7288642730564,156.0
1731822244.5373805,-971.3137268419378,-423.92139987740666,-1046.1902638548054,-443.611973144114,157.0
1731822244.5373805,-952.0831612697802,-442.6134198559448,-1022.6775128333829,-446.00550911575556,157.0
1731822244.537996,-972.9293636227958,-446.67869110777974,-1044.6419452731498,-432.00332368165255,158.0
1731822244.537996,-980.476481733378,-436.6968981260434,-1051.321406594012,-442.30674805957824,158.0
1731822244.551812,-961.010302464012,-448.6234390847385,-1041.152618614491,-454.94013010989875,159.0
1731822244.551812,-980.4951812331565,-472.51018010172993,-1059.0256005027331,-456.23787539452314,159.0
1731822244.5675085,-991.6363432011567,-458.736128564924,-1061.7482476704754,-455.78908739984035,160.0
1731822244.5675085,-962.240729549434,-431.9846241818741,-1037.8091480541043,-436.11347373295575,160.0
1731822244.5682397,-976.3551119822077,-464.9668018911034,-1050.7118029012345,-451.7612151475623,161.0
1731822244.5682397,-994.3290711692534,-452.2100031422451,-1075.9224685025401,-447.41919129900634,161.0
1731822244.581791,-974.1784902079962,-434.32954145409167,-1051.5645000911318,-445.9232313167304,162.0
1731822244.581791,-973.9653159105219,-458.6912497654557,-1053.056720173452,-464.91070339176804,162.0
1731822244.5976481,-972.5665933270939,-465.16501658875495,-1057.2042692243122,-445.59786002058536,163.0
1731822244.5976481,-962.6857776441611,-424.0074175763875,-1043.0898867915384,-430.55972229875624,163.0
1731822244.598056,-960.8868857654743,-430.81029559578747,-1032.6368664153852,-440.12264648545533,164.0
1731822244.598056,-976.9048772756942,-473.7106879875064,-1057.376304622274,-458.2088026711717,164.0
1731822244.611832,-964.3986518238671,-447.46033019851893,-1054.1637305603363,-444.9134583286941,165.0
1731822244.611832,-937.9463394372724,-418.40504744276404,-1029.6673858505674,-436.5024233283475,165.0
1731822244.6275485,-950.2132112919353,-470.7449473226443,-1032.4012527181767,-473.8902031853795,166.0
1731822244.6275485,-960.2623224728741,-457.8422924755141,-1034.5666547925211,-455.78534749988467,166.0
1731822244.6283934,-962.2070704498328,-446.85446640569717,-1033.990710199345,-453.8368596229702,167.0
1731822244.6283934,-945.2952428502031,-475.4086025673896,-1019.999744465109,-466.38796387426555,167.0
1731822244.6416943,-959.3161277840845,-487.76149212103337,-1044.2679552775808,-466.0700723780319,168.0
1731822244.6416943,-948.070248617325,-455.9162439983338,-1030.505123440642,-467.0424463665113,168.0
1731822244.6577008,-935.6014221650548,-471.42560911457986,-1022.8233689316548,-494.6503878394142,169.0
1731822244.6577008,-939.060829624068,-491.7557052737102,-1031.4550580293871,-490.5290180882439,169.0
1731822244.6580625,-926.289071275387,-460.9164902390912,-1017.587508993689,-459.57012625504285,170.0
1731822244.6580625,-888.4001448242925,-416.8567288611084,-979.7958199414425,-432.1716191796586,170.0
1731822244.6716032,-857.1645003943704,-440.4031389821321,-957.1282863100059,-426.25509744975716,171.0
1731822244.6716032,-808.4223842718638,-412.47730601299554,-922.4070551213808,-400.9958131490275,171.0
1731822244.6875713,-736.0590600292198,-358.7611229494214,-850.8403295692988,-357.6615923624486,172.0
1731822244.6875713,-690.8885483643971,-366.8393068537116,-806.8441464905627,-353.4916039118543,172.0
1731822244.688048,-663.8079327852465,-337.91866049636155,-770.1557279252447,-319.8287644106895,173.0
1731822244.688048,-657.9213302549906,-301.94456282258034,-749.1038310746662,-314.70884137135,173.0
1731822244.702428,-653.9757358017378,-302.1091184206307,-738.1982828038745,-316.0402457555756,174.0
1731822244.702428,-681.1012301803567,-338.13931459374726,-758.82757095946,-308.3622311465442,174.0
1731822244.7176387,-687.7470324016176,-323.669641665183,-769.9500334276818,-316.9939202442765,175.0
1731822244.7176387,-697.2089792895131,-325.65178864169866,-786.9740580259822,-331.0372445778921,175.0
1731822244.7183852,-745.6219842159189,-375.50091515108943,-826.7553738546558,-355.2904957905412,176.0
1731822244.7183852,-754.7436002078466,-380.1122117964551,-841.2325265831314,-363.66787169128656,176.0
1731822244.731762,-767.1002296614461,-362.2915885075927,-846.2252930239774,-346.59522839356214,177.0
1731822244.731762,-784.142953759525,-393.2168212411925,-859.520637366455,-374.31162696518004,177.0
1731822244.7473288,-829.7697332189418,-423.07618248742074,-905.3905103229918,-387.41997630987316,178.0
1731822244.7473288,-844.0748505494557,-392.969987844117,-919.594650354702,-390.823285269551,178.0
1731822244.7480578,-846.9246543156914,-394.47342762630433,-922.3210374224,-389.94066888000816,179.0
1731822244.7480578,-877.8386673494242,-413.51325830072165,-954.0840077460743,-407.80991086829454,179.0
1731822244.7617033,-896.4110105293803,-421.6475407043472,-974.6422378025018,-413.3898416021839,180.0
1731822244.7617033,-897.6638770145364,-401.28004554565996,-980.4016837342642,-413.83862959686667,180.0
1731822244.7775004,-918.4876399678178,-422.4329196950421,-998.327024221886,-426.7562440438196,181.0
1731822244.7775004,-944.8688942552544,-450.15305816661566,-1024.7681169086136,-442.3591066589579,181.0
1731822244.7781284,-949.1510797045194,-415.1924733808264,-1022.6363739338703,-435.29817554261535,182.0
1731822244.7781284,-952.206577968318,-450.6168057611212,-1031.8739268244244,-452.8794452343136,182.0
1731822244.792248,-966.1302255033515,-470.01566683128476,-1052.4246770809405,-464.0767057016492,183.0
1731822244.792248,-965.4458238114603,-449.9099646694958,-1046.8634458468296,-459.2971135582775,183.0
1731822244.8076355,-966.8856852944009,-453.4292105278,-1046.8971049464308,-468.09709815401584,184.0
1731822244.8076355,-983.6404370958917,-480.0535583123565,-1061.5201137731783,-470.0717653306201,184.0
1731822244.808463,-993.3903562803753,-464.6227310951799,-1062.9300560564734,-467.5248934607953,185.0
1731822244.808463,-991.3296714047901,-459.63744445424527,-1064.0894250427373,-480.7790989037603,185.0
1731822244.8216786,-993.7718260758556,-482.02074568904936,-1064.2539806407876,-480.90625550225377,186.0
1731822244.8216786,-1001.1880476879887,-480.99227320123464,-1078.6114565706812,-483.46434707194567,186.0
1731822244.8375251,-1001.6517952824943,-462.8874175157398,-1078.14396907622,-480.43876800779253,187.0
1731822244.8375251,-1006.0723570301197,-474.9298953730613,-1076.6255696942098,-483.6102031702176,187.0
1731822244.8379936,-1028.7211911617778,-511.22188454307616,-1095.1380744748749,-511.21814464312047,188.0
1731822244.8379936,-1009.7411988866515,-474.9261554731056,-1076.6554888938554,-493.88744824845344,188.0
1731822244.8523037,-987.447655250784,-460.19468954764307,-1058.4421761096455,-474.42874877899885,189.0
1731822244.8523037,-1005.0625840420835,-496.66245401557535,-1076.827524291817,-491.7257860740647,189.0
1731822244.8675241,-1013.619475140702,-481.54951829463243,-1090.20514643332,-487.4099415251985,190.0
1731822244.8675241,-1003.4693866609596,-465.1126579893753,-1066.456781714689,-487.80637092050165,190.0
1731822244.8682835,-1012.2843308565207,-492.4176675658673,-1072.66875554109,-496.5614767167717,191.0
1731822244.8682835,-1003.9854928548448,-480.3714498085901,-1075.6756351054646,-479.98624011315405,191.0
1731822244.8828323,-997.7809988283552,-460.68461644183844,-1070.3724569682963,-478.47532053105533,192.0
1731822244.8828323,-1004.1463085529394,-475.7451935634017,-1069.0447924840264,-484.1861477633938,192.0
1731822244.8975976,-1010.6387748760171,-504.1385140269995,-1093.208286097739,-499.14574758615345,193.0
1731822244.8975976,-997.9567741262726,-467.80164605751634,-1078.9443076667376,-482.7500261804089,193.0
1731822244.8982627,-1009.0268779951148,-480.1620154110715,-1071.1204369594343,-494.92714043613523,194.0
1731822244.8982627,-1023.2048387271352,-499.9423462767154,-1088.9709794479422,-497.58246940467507,194.0
1731822244.911729,-1013.413780643139,-472.87295039743185,-1085.403114890214,-481.4186217961833,195.0
1731822244.911729,-998.0540115251206,-448.6907572839409,-1070.6716489647515,-467.28179996367544,195.0
1731822244.927631,-1007.0896098180674,-480.13957601133734,-1078.263645874802,-476.20520125795156,196.0
1731822244.927631,-1017.6922261924483,-481.6355359936133,-1081.472480036784,-480.13209621142596,196.0
1731822244.9281473,-1009.4569664900191,-451.0394144561142,-1074.9650541138835,-466.2944663753733,197.0
1731822244.9281473,-1010.941706772428,-466.57121897209436,-1072.3246847451665,-471.38821011502296,197.0
1731822244.958994,-1041.9305178052746,-497.07384301070124,-1100.4262930122204,-498.7193989912048,198.0
1731822244.958994,-1028.4107794654556,-455.7778676999733,-1094.4050540835597,-478.9764671251178,198.0
1731822244.959596,-999.3480169097893,-433.14399316813797,-1068.7680398873053,-455.61331210192293,199.0
1731822244.959596,-1012.7854774505831,-484.6760746575892,-1085.4741729893722,-477.1139969471842,199.0
1731822244.9604616,-1027.2140114796348,-465.3295721868053,-1086.1585746812634,-482.0544047886506,200.0
1731822244.9604616,-1009.6813604873605,-441.08754067402333,-1073.9440614259802,-463.31750601064414,200.0
1731822244.961079,-1021.9164431924,-476.8596837501973,-1085.0683938441798,-480.3078715093434,0.0
1731822244.97159,-1026.150009942241,-474.24923358112574,-1102.4439690383151,-479.09614392369986,101.0
1731822244.97159,-1019.9903947152197,-446.4767365101725,-1089.818066787906,-474.6606225762516,101.0
1731822244.9871244,-996.6758583914489,-455.3328196052462,-1077.7007909314707,-467.9662016555667,102.0
1731822244.9871244,-1025.1103177545592,-500.06576297525316,-1099.2313949763775,-502.00303115230054,102.0
1731822245.0033736,-1012.6153120025992,-452.04170764423907,-1069.9030995238572,-473.27685959264636,103.0
1731822245.0033736,-989.0389826819301,-430.89257339481264,-1063.006724005565,-448.33920668810606,103.0
1731822245.0176325,-1015.9438229631633,-494.1193220457062,-1085.2740883417428,-486.59090343490243,104.0
1731822245.0176325,-1015.9550426630303,-479.3055783212185,-1083.9913026569411,-481.65797539334744,104.0
1731822245.0183356,-1002.7344963196665,-441.15859877318144,-1062.801029508002,-461.3727580336854,105.0
1731822245.0183356,-994.1140269218013,-482.21522048674524,-1061.4434458240867,-475.16924897022545,105.0
1731822245.032673,-1011.6878168135881,-484.2011073632166,-1081.6912641841918,-487.99710581824183,106.0
1731822245.032673,-994.985423611477,-453.8555591227487,-1062.9730649059638,-475.3450242681429,106.0
1731822245.0332708,-983.7395444447175,-458.26864107046276,-1058.9040537541732,-469.5145202372223,107.0
1731822245.0332708,-1023.9322492685169,-495.9817922236398,-1087.4581899158657,-493.25540515594184,107.0
1731822245.0465543,-1015.7007294660434,-464.9256629915908,-1068.6128340391442,-486.14585534017533,108.0
1731822245.0465543,-997.8838460771367,-449.3228003764525,-1049.8347963616252,-465.3707110863179,108.0
1731822245.0623355,-998.0820607747883,-495.2450319323689,-1066.540929463692,-489.77729819715023,109.0
1731822245.0623355,-998.3999522710219,-461.60463183093816,-1065.1721260799095,-471.0067403195426,109.0
1731822245.062976,-994.2187441205606,-439.6551589909941,-1059.1882861508057,-455.01118820905685,110.0
1731822245.062976,-1010.7715413244441,-500.88106116559356,-1066.6269471626729,-493.0497106583789,110.0
1731822245.076569,-1011.8673320114613,-484.87802925519645,-1068.9232457354665,-490.9665863830596,111.0
1731822245.076569,-998.4560507703573,-455.5833929022774,-1059.1209679516032,-474.6793220760301,111.0
1731822245.0923514,-988.122707192786,-467.3378984630108,-1055.6054619932547,-460.291926946491,112.0
1731822245.0923514,-997.0498483870178,-506.4946509990841,-1065.3067624783143,-478.09759063553065,112.0
1731822245.092996,-992.1281400453299,-469.6304571358487,-1057.434273071587,-468.64686344750226,113.0
1731822245.092996,-985.4299792246893,-451.0394144561142,-1048.316396979615,-441.30819477140903,113.0
1731822245.10657,-989.5176898762584,-494.8373828371987,-1069.5178898284212,-475.61803696490824,114.0
1731822245.10657,-983.8854005429894,-461.63829093053937,-1062.5467163110152,-457.52814087923616,114.0
1731822245.1223023,-980.609248181805,-423.760584179312,-1051.1699406458065,-437.56455491576344,115.0
1731822245.1223023,-994.660052315332,-464.54045329615474,-1062.778590108268,-452.9542432334274,115.0
1731822245.1229742,-999.7163970554247,-455.8190065994859,-1071.6720722028986,-447.5837468970567,116.0
1731822245.1229742,-992.6143270395696,-428.379360624589,-1052.8603754257783,-440.3208611831069,116.0
1731822245.1368587,-992.9621377354488,-463.61669800709933,-1053.8327494142577,-456.6343047898263,117.0
1731822245.1368587,-1003.1683247145265,-509.07518196851015,-1071.9338651997969,-488.9021616075188,117.0
1731822245.1526372,-999.4994828579947,-475.5133197661489,-1063.2161584030837,-479.68330821674317,118.0
1731822245.1526372,-977.8791212141514,-445.7998146181926,-1042.0558044537902,-453.9565364215523,118.0
1731822245.1533468,-993.6054005278274,-499.9722654763609,-1063.2273781029508,-490.69731358624995,119.0
1731822245.1533468,-995.0116029111668,-486.06731744110584,-1058.4178667599335,-486.40016853716224,119.0
1731822245.1668077,-979.9398060897365,-435.5711882393807,-1042.1268625529483,-455.3328196052462,120.0
1731822245.1668077,-977.5799292176962,-492.80287726130337,-1045.1636613169685,-489.8969749957323,120.0
1731822245.1825032,-995.6212066039443,-508.7909495718777,-1056.517997582443,-491.70334667433053,121.0
1731822245.1825032,-974.9545194488019,-465.3744509862736,-1047.0597905945033,-460.02265414968133,121.0
1731822245.183179,-969.7373590106145,-487.47725972440094,-1037.7250003051013,-471.8070789100602,122.0
1731822245.183179,-992.8835998363793,-525.1230926783755,-1057.0752426758409,-501.22513196151704,122.0
1731822245.1972604,-988.2349041914567,-473.90516278520226,-1049.8422761615366,-475.4497414669022,123.0
1731822245.1972604,-973.735312063247,-443.6231928439811,-1042.8598829442635,-443.503516045399,123.0
1731822245.2126055,-985.373880725354,-496.6512343157083,-1055.7026993921027,-484.65363525785506,124.0
1731822245.2126055,-982.4268395602703,-452.04918744415045,-1053.3652619197965,-458.56783306691796,124.0
1731822245.213262,-978.5336037063971,-420.66020711604506,-1048.7838844740763,-433.1252936683595,125.0
1731822245.213262,-977.0787826236337,-466.249587575905,-1046.1921338047832,-461.94122282695025,125.0
1731822245.2272515,-996.2943885959685,-471.3059323159978,-1064.1922722915187,-469.6005379362032,126.0
1731822245.2272515,-973.9410065608099,-416.7482717623934,-1040.0399983776733,-425.316382560879,126.0
1731822245.2425857,-968.753765322268,-449.0236083799973,-1045.459113413468,-446.90308510512114,127.0
1731822245.2425857,-1001.3881323356181,-493.1880869567394,-1072.1919182967395,-477.32343134470284,127.0
1731822245.2433243,-996.3916259948164,-448.7692951830104,-1060.9273396302015,-459.12881806027144,128.0
1731822245.2433243,-984.9437922304496,-451.9968288447708,-1055.770017591305,-454.8391528110951,128.0
1731822245.2572296,-987.157813004218,-485.2295798510313,-1060.740344632417,-473.7480869870633,129.0
1731822245.2572296,-980.923399778083,-461.5971520310268,-1054.8163431026042,-474.2567133810371,129.0
1731822245.2726357,-971.0762431947514,-410.7906111329794,-1046.5736036002636,-428.11382772773504,130.0
1731822245.2726357,-961.9209681032225,-458.4406764684245,-1045.096343117766,-465.9690950792283,130.0
1731822245.2733126,-990.9051927598193,-472.7083947993815,-1064.936512382701,-486.6694413339719,131.0
1731822245.2733126,-975.074196247384,-413.7226926982403,-1052.0712565351278,-446.6525118080899,131.0
1731822245.2870414,-965.3541962625459,-464.61151139531285,-1049.1803138693795,-483.21003387495875,132.0
1731822245.2870414,-973.4361200667918,-481.904808790423,-1057.000444676727,-494.14924124535173,132.0
1731822245.302914,-965.6683478588238,-424.40758687164634,-1044.9317875197157,-462.2628542231396,133.0
1731822245.302914,-959.6583286300302,-433.8807534594089,-1037.7736190045252,-471.83325820975006,133.0
1731822245.3030276,-973.8475090619177,-491.3106571789831,-1055.1828532982618,-513.9445317108184,134.0
1731822245.3030276,-990.2507102675736,-462.4461093209684,-1064.6074011866003,-496.0902493223548,134.0
1731822245.3167305,-965.473873061128,-405.7043471932411,-1039.5650310833007,-448.01009549200535,135.0
1731822245.3167305,-953.8839230984449,-447.85675959382206,-1033.121183459647,-463.4745818087831,135.0
1731822245.332371,-973.9597060605884,-426.4682717472315,-1058.2645308617502,-454.22954911831766,136.0
1731822245.332371,-971.4764124900103,-384.5103341443464,-1050.6388748520985,-420.9107804130763,136.0
1731822245.333182,-962.3099176986143,-402.8283641273156,-1054.1169818108901,-421.4680255064741,137.0
1731822245.333182,-996.698297791183,-439.3110881950706,-1074.439598170109,-436.4276253292337,137.0
1731822245.3472652,-1003.6732112085447,-382.0046011740342,-1069.4318721294403,-391.9938739556819,138.0
1731822245.3472652,-990.3442077664658,-387.3002995112911,-1070.6996982144192,-392.6633160477504,138.0
1731822245.3625991,-992.8424609368667,-405.16954149957746,-1073.0932341860607,-384.39439724572003,139.0
1731822245.3625991,-1008.4303639521822,-371.2823080010712,-1101.710948647,-371.2860479010269,139.0
1731822245.3633344,-1007.0952196680009,-341.58376245293766,-1090.6819836776704,-365.49668276961893,140.0
1731822245.3633344,-1006.1265855794773,-382.5992452669889,-1095.0614065257832,-378.8743049111217,140.0
1731822245.3772128,-1039.9801599783823,-396.01800630800426,-1125.2685784678906,-391.54508596099913,141.0
1731822245.3772128,-1029.1194905070588,-359.26226954348385,-1106.4681013906375,-354.92024569492787,141.0
1731822245.3925774,-1006.8109872713685,-417.2307188566774,-1099.3398520750925,-377.30728682968765,142.0
1731822245.3925774,-1059.5398367466405,-468.97971454355866,-1137.060483028181,-423.543669981882,142.0
1731822245.3933103,-1042.3736959500238,-410.2595453392714,-1130.5268778055906,-375.4373368518427,143.0
1731822245.3933103,-1015.2257621716708,-446.3907188111916,-1100.9928878555074,-429.22457801457494,143.0
1731822245.4069352,-1012.5517337033525,-479.72818701621145,-1110.1593826469034,-417.66454725153744,144.0
1731822245.4069352,-1049.5056851655245,-463.8560516042635,-1126.977712747641,-417.91886044852436,144.0
1731822245.4225838,-1021.2283016005531,-419.6766134276986,-1110.151902846992,-392.0387527551502,145.0
1731822245.4225838,-1049.5430841650814,-502.18628625012934,-1131.2187592973933,-465.1126579893753,145.0
1731822245.4233048,-1044.3782823262736,-485.76064564473927,-1139.16978660319,-457.0419538849965,146.0
1731822245.4233048,-1023.6554966717958,-427.6762594329193,-1107.5975511772558,-423.52123058214784,146.0
1731822245.4370017,-1035.9261084264144,-486.06731744110584,-1114.288232197985,-436.5734814275056,147.0
1731822245.4370017,-1050.5640768529847,-486.24683263897896,-1150.1725722728297,-439.8683332884684,147.0
1731822245.4525928,-1053.4288402190432,-411.02248493023217,-1133.0400905758142,-378.0739663206041,148.0
1731822245.4525928,-1024.8410449577495,-456.75772148836404,-1109.549778954126,-408.6065095588565,148.0
1731822245.453221,-1024.3623377634212,-469.2901262398809,-1113.117643511854,-425.4697184590623,149.0
1731822245.453221,-1062.0493096169084,-467.3977368623018,-1139.3642614008859,-452.00804854463786,149.0
1731822245.4672427,-1016.1607371605933,-407.24518597498536,-1106.823391886428,-405.4238546965644,150.0
1731822245.4672427,-1027.5113335261121,-473.17588229384273,-1109.6170971533284,-465.7409611819312,150.0
1731822245.4825828,-1047.4337805900723,-483.99541286565363,-1129.9172741128132,-472.0015537077561,151.0
1731822245.4825828,-1021.7444077944383,-421.2473714090884,-1099.971895167604,-458.2873405702412,151.0
1731822245.48328,-1001.8219607304782,-461.75796772912145,-1082.5364815741777,-512.1755590317771,152.0
1731822245.48328,-1046.9887324953452,-521.3270942233503,-1131.2299789972603,-557.7275404920802,152.0
1731822245.4972112,-1063.4068933008239,-494.28387764375657,-1133.9900251645595,-529.6670711245388,153.0
1731822245.4972112,-998.302714872174,-476.2949588568881,-1090.6819836776704,-531.0470942081884,153.0
1731822245.52904,-1017.0470934500918,-539.4469095086679,-1096.0188209144399,-573.6071557039395,154.0
1731822245.52904,-1025.0803985549137,-502.47799844667315,-1088.1238921079785,-578.6036620447412,154.0
1731822245.5294793,-988.0815682932734,-438.6491259029135,-1060.9909179294482,-536.8925578389317,155.0
1731822245.5294793,-1001.2160969376564,-503.154920338653,-1085.47604293935,-575.518244581297,155.0
1731822245.5303671,-1024.897143457085,-494.5045317411423,-1107.679828976281,-585.1260475674644,156.0
1731822245.5303671,-982.1837460631505,-445.6277792202309,-1054.0085247121751,-572.6048625158146,156.0
1731822245.5312135,-1006.0443077804521,-478.153689134866,-1083.9165046578273,-596.2410302357748,157.0
1731822245.5312135,-987.412126201205,-502.07034935150295,-1065.7405908731744,-571.0004454348236,157.0
1731822245.5419655,-966.8912951443344,-439.4719038931653,-1058.664700157009,-551.5006070658565,158.0
1731822245.5419655,-977.2059392221272,-477.57774454168975,-1061.645400421694,-569.3997682537884,158.0
1731822245.5566773,-974.5805294532329,-475.4422616669908,-1052.5836228290573,-593.9858705624938,159.0
1731822245.5566773,-946.4452620865777,-437.1793452203274,-1037.7661392046139,-538.5156744197011,159.0
1731822245.5725703,-948.842537958175,-402.3346973331645,-1031.5579052781686,-484.68729435745627,160.0
1731822245.5725703,-965.2120800642297,-474.75785997509956,-1046.738159198314,-514.094127709046,160.0
1731822245.573326,-965.2232997640967,-469.95208853203803,-1030.8735035862774,-507.0593758923933,161.0
1731822245.573326,-947.5597522733733,-401.83355073910207,-1024.930802556686,-470.21014162898064,161.0
1731822245.603033,-975.5903024412692,-439.584100891836,-1052.972572424449,-508.70867177285254,162.0
1731822245.603033,-971.6297483881935,-478.61369682941586,-1061.9146732185036,-508.07288878038526,162.0
1731822245.6038342,-1003.6245925091207,-434.7259708493948,-1071.2644231077284,-489.900714895688,163.0
1731822245.6038342,-943.1653698254377,-439.45320439338684,-1011.822453211993,-477.6001839414239,163.0
1731822245.604675,-953.2331805061549,-487.7166133215651,-1040.9936728663743,-509.3930734647438,164.0
1731822245.604675,-947.8739038696513,-421.92803320102394,-1027.2084016297013,-436.5884410273284,164.0
1731822245.617228,-974.0793828591704,-442.67325825523585,-1056.2001060862094,-472.1212305063382,165.0
1731822245.617228,-973.8138499623165,-482.2600992862135,-1045.9677398074418,-483.4980061715469,165.0
1731822245.632614,-974.3710950557142,-473.57979148905724,-1041.3302638623863,-466.75447406992316,166.0
1731822245.632614,-947.9337422689423,-416.58745606429875,-1022.3764508869499,-420.43581311870366,166.0
1731822245.6333065,-934.1409912323579,-439.3559669945389,-1030.5219529904425,-439.2400300959125,167.0
1731822245.6333065,-1028.3266317164525,-494.1642008451745,-1088.1238921079785,-482.2750588860363,167.0
1731822245.6472409,-1008.9352504462004,-431.06834869273007,-1075.4269317584112,-426.99185774102807,168.0
1731822245.6472409,-985.1307872282341,-445.1004533264786,-1048.739005674608,-477.9592143371701,168.0
1731822245.6625972,-977.3218761207536,-464.23378149978817,-1076.0552349509671,-450.68038406036794,169.0
1731822245.6625972,-1015.3416990702972,-481.62057639379054,-1063.8669009953737,-472.86921049747616,169.0
1731822245.663308,-1035.27910573408,-477.2187141459435,-1084.6457851491868,-508.2000453788787,170.0
1731822245.663308,-987.2288711033762,-470.6215306241065,-1083.5088555626571,-501.0830157632008,170.0
1731822245.6771965,-1002.5138422222808,-426.1017615515739,-1060.0297636408359,-466.69089577067643,171.0
1731822245.6771965,-968.00578533113,-408.07170386519283,-1046.0911565059796,-463.0332736140117,171.0
1731822245.7097816,-998.03718197532,-466.6572366710752,-1064.6448001861572,-539.7087025055662,172.0
1731822245.7097816,-1045.4778129132465,-491.0526040820405,-1112.552918618545,-536.671903741546,172.0
1731822245.7098072,-1022.2979129878804,-465.9354359796271,-1085.9510102337226,-482.5256321830675,173.0
1731822245.7098072,-971.96259948425,-473.34791769180447,-1039.6248694825917,-488.2252397155389,173.0
1731822245.710405,-1021.0637460025027,-549.6643161876127,-1088.707316501066,-567.0473711816594,174.0
1731822245.710405,-977.0675629237667,-520.2911419356242,-1053.009971424006,-563.8460168195888,174.0
1731822245.7111993,-982.0902485642582,-522.9128118045628,-1037.777358904481,-568.1955204680562,175.0
1731822245.7111993,-945.9740346921608,-617.2330886870623,-1024.0668856669217,-621.2273018397391,175.0
1731822245.7216153,-972.3141500800848,-539.2374751111493,-1040.5411449717358,-546.6125578237697,176.0
1731822245.7216153,-939.4067703699693,-483.411988472566,-1014.391764481552,-494.73640553839505,176.0
1731822245.736797,-988.5714951874688,-458.1751435715705,-1029.201768306084,-476.02942596003413,177.0
1731822245.736797,-966.7790981456637,-470.84218472149223,-1046.7680783979595,-475.01591307204217,177.0
1731822245.75256,-952.8891097102314,-437.04844872187823,-1018.5131342327222,-430.89631329476833,178.0
1731822245.75256,-964.7221531700343,-498.8203762900084,-1011.014634821564,-491.59114967565984,178.0
1731822245.753189,-989.461591376923,-540.7222153935581,-1045.4778129132465,-516.7644162774086,179.0
1731822245.753189,-957.6200831541792,-448.7992143826559,-1046.7119798986241,-454.41280421614647,179.0
1731822245.7666492,-935.442476416938,-453.50026862695813,-1016.8787979520857,-447.97643639240414,180.0
1731822245.7666492,-970.732172398828,-527.1762977540493,-1037.523045707494,-490.18120739236474,180.0
1731822245.783128,-951.0079400325194,-506.99953749310225,-1000.7186902435496,-448.11855259072036,181.0
1731822245.783128,-958.5812374427915,-501.36350825987756,-1027.451495126821,-455.1009458079934,181.0
1731822245.7975893,-981.5666625704616,-539.1402377123013,-1028.93623540923,-508.88444707076997,182.0
1731822245.7975893,-946.2096483893692,-536.6681638415903,-1022.2530341884121,-489.7810380971059,182.0
1731822245.7981892,-953.9587210975587,-504.80795611906797,-1009.832826435566,-469.0806918423623,183.0
1731822245.7981892,-937.9519492872059,-539.0392604134977,-1003.0037691164762,-494.8972212364897,183.0
1731822245.8134341,-939.4553890693933,-558.8569902786985,-1016.5122877564281,-476.4782139547169,184.0
1731822245.8134341,-951.0752582317218,-496.6026156162843,-1028.9175359094515,-439.3896260941401,184.0
1731822245.8138652,-949.0893713552505,-494.7476252382621,-1014.934049975127,-458.7660477645695,185.0
1731822245.8138652,-951.4567280272022,-559.1150433756411,-1015.2781207710505,-487.0845702290535,185.0
1731822245.8268032,-930.6516645736992,-514.6588526023552,-1011.6130188144743,-445.5006226217374,186.0
1731822245.8268032,-953.5286326026544,-491.0189449824393,-1010.917397422716,-448.2419692892581,186.0
1731822245.8430507,-948.479767662473,-518.4922500569373,-1017.8698714403436,-471.50040711369365,187.0
1731822245.8430507,-982.7260315567255,-508.07288878038526,-1029.1344501068816,-458.05546677298844,187.0
1731822245.8430767,-954.5720646902919,-451.3984448518604,-1037.268732510507,-397.53640569001436,188.0
1731822245.8430767,-953.2294406061992,-485.3455167496577,-995.576327804476,-421.7260786034167,188.0
1731822245.8571484,-958.9440077384934,-490.58885648753494,-1019.7398214181885,-416.5612767646089,189.0
1731822245.8571484,-967.35504273884,-452.6288719372824,-1049.6889402633533,-402.8620232269168,189.0
1731822245.8725371,-930.3786518769339,-454.97752910945565,-1002.1922108260915,-425.7614306556061,190.0
1731822245.8725371,-971.0612835949287,-513.2676098188385,-1025.5142269497737,-454.1884102188051,190.0
1731822245.8733385,-978.245631409809,-483.46434707194567,-1043.5742038358003,-412.929833907634,191.0
1731822245.8733385,-959.3254775339738,-465.98405467905104,-1029.889909897931,-411.0785834295675,191.0
1731822245.886965,-937.963168987073,-508.51419697515666,-1022.4288094863296,-439.11661339737475,192.0
1731822245.886965,-956.9394213622436,-519.3860861463472,-1042.0408448539674,-450.71404315996915,192.0
1731822245.9025495,-969.0342578189448,-503.203539038077,-1019.661283519119,-457.1017922842875,193.0
1731822245.9025495,-947.1109642786905,-495.4956052294001,-1013.7260622894391,-452.27358144149184,193.0
1731822245.9032772,-967.1119492417201,-518.5259091565385,-1027.6422300245613,-482.8584832791239,194.0
1731822245.9032772,-962.953180490993,-498.00133819971234,-1039.404215385206,-478.54263873025775,194.0
1731822245.917168,-930.0046618813649,-439.14653259702027,-1006.8783054705709,-425.4323194595054,195.0
1731822245.917168,-931.2986672660336,-448.75807548314333,-1018.1728033367544,-442.0299954628572,195.0
1731822245.958567,-986.2228380152956,-455.2842009058222,-1048.5033919773996,-420.1927196215838,196.0
1731822245.958567,-982.804569455795,-407.5256784716621,-1041.1395289646462,-391.3805303629488,196.0
1731822245.9586148,-955.7576129762456,-408.6065095588565,-1037.9680938022211,-386.01751382648945,197.0
1731822245.9586148,-998.1381592741236,-418.29285044409335,-1072.1993980966508,-400.80507825128734,197.0
1731822245.9586244,-973.0471704714,-407.24892587494105,-1050.5640768529847,-421.4306265069172,198.0
1731822245.9586244,-934.7992136245593,-392.8540509454906,-1023.6554966717958,-417.03250415902585,198.0
1731822245.9624467,-1020.0427533145994,-466.8554513687268,-1075.4344115583226,-463.2576676113531,199.0
1731822245.9624467,-949.9196291454136,-354.6958516975865,-1040.2082938756794,-386.3653245223686,199.0
1731822245.963205,-1019.3807910224423,-387.0048474147916,-1068.324861742556,-411.09728292934597,200.0
1731822245.963205,-980.0220838887617,-418.2404918447137,-1048.2266393806785,-421.35956840775907,200.0
1731822245.9774854,-990.4620146150701,-382.4421694688499,-1064.8822838333435,-383.42202325724065,0.0
1731822245.978036,-967.4279707879759,-381.82508597616106,-1053.3746116696857,-401.51191934291273,101.0
1731822245.978036,-934.6066087768413,-405.9362209904939,-1019.4611988714896,-414.64270808734,101.0
1731822245.9919236,-1007.7740115099587,-427.7622771319002,-1074.7967586158775,-430.6457399977371,102.0
1731822245.9919236,-978.2849003593437,-403.28837182186544,-1067.253380405251,-426.04192315228283,102.0
1731822246.0395975,-995.7876321519725,-440.97534367535263,-1049.5150349154137,-441.55502816848457,103.0
1731822246.0395975,-990.2899792171083,-449.3639392759651,-1064.6878090356477,-438.70522440224886,103.0
1731822246.040397,-960.9616837645881,-398.5312190782279,-1057.76151431771,-409.47042644862086,104.0
1731822246.040397,-993.8541038748808,-416.7856707619503,-1058.0906255138107,-423.10236178711057,104.0
1731822246.041186,-945.5532959471457,-411.5236315242946,-1032.4648310174234,-402.9592606257647,105.0
1731822246.041186,-985.0055005797185,-408.370895861648,-1043.2731418893673,-405.17702129948884,105.0
1731822246.0418983,-978.969302051235,-383.3360055582598,-1045.3300868649967,-392.16590935364366,106.0
1731822246.0418983,-981.1608834252693,-427.26113053783774,-1048.3257467295043,-426.0905418517068,106.0
1731822246.0526464,-977.31626627082,-417.35787545517087,-1074.7032611169852,-412.3464095145464,107.0
1731822246.0526464,-980.2333882362582,-389.8247319813818,-1043.7294096839614,-399.76164616364986,107.0
1731822246.0533233,-979.4966279449873,-429.81548220757395,-1061.4378359741531,-427.96797162946314,108.0
1731822246.0533233,-946.0993213406764,-436.8838931238279,-1051.8786516874097,-404.9675869019702,108.0
1731822246.0673313,-1001.0384516897611,-471.7360208109021,-1062.1222376660444,-454.57361991424114,109.0
1731822246.0673313,-979.8893174403347,-453.85929902270436,-1046.3435997529887,-464.45443559717387,109.0
1731822246.06806,-982.3239923114888,-469.20784844085574,-1061.9277628683485,-446.9180447049439,110.0
1731822246.06806,-962.4800831465982,-496.95790611207485,-1037.4426378584467,-471.86691730935127,110.0
1731822246.0819893,-971.0519338450395,-438.944577999413,-1051.7103561894037,-423.89148067776114,111.0
1731822246.0819893,-968.5761200743727,-475.2216075696051,-1065.4769279262982,-466.2608072757721,111.0
1731822246.0976267,-993.9700407735072,-501.6066017569974,-1054.492841756437,-480.84267720300704,112.0
1731822246.0976267,-961.9265779531561,-447.93529749289155,-1036.7133573670872,-446.5141355097294,112.0
1731822246.098076,-959.3535267836414,-481.13438939955086,-1047.9143577343784,-486.28049173858017,113.0
1731822246.098076,-938.9074937258847,-481.7439930923283,-1041.6163662089966,-479.5711112180725,113.0
1731822246.1122112,-962.9999292404391,-490.92170758359134,-1035.075281186495,-486.8713959315792,114.0
1731822246.1122112,-939.2702640215866,-427.9791913293302,-1027.4084862773307,-443.9186449404806,114.0
1731822246.1276312,-969.4437768640928,-487.3388834260404,-1040.176504726056,-478.3780831322074,115.0
1731822246.1276312,-956.8365741134621,-484.55265795905143,-1020.8861007546075,-485.7830850444734,115.0
1731822246.1285603,-919.9275014507584,-424.8788142660633,-1013.8102100384422,-442.07487426232547,116.0
1731822246.1285603,-973.5090481159277,-511.70807153731585,-1041.9529572050087,-513.2077714195475,116.0
1731822246.1422176,-959.2076706853695,-530.9161977097392,-1034.3833996946923,-508.2374443784356,117.0
1731822246.1422176,-934.6776668759994,-501.80855635460466,-1025.7928494964726,-503.2371981376782,117.0
1731822246.1576705,-909.3174052764662,-497.5637699048966,-997.2985517340712,-497.6722270036116,118.0
1731822246.1576705,-963.9349042293616,-540.9241699911654,-1035.546508580912,-535.5574135547504,118.0
1731822246.1584108,-971.1641308437102,-505.84390840679407,-1035.7821222781204,-505.92244630586356,119.0
1731822246.1584108,-954.1662855450995,-483.35588997323066,-1024.2968895141967,-503.59248863346875,119.0
1731822246.172166,-928.327316751238,-486.1608149399981,-1000.6943808938377,-486.9686333304271,120.0
1731822246.172166,-925.1035229894333,-470.3036391278729,-1032.7453235141002,-479.06996462401,120.0
1731822246.1875532,-945.3251620498486,-463.45962220896035,-1026.5557890874334,-485.10616315249354,121.0
1731822246.1875532,-951.3950196779333,-485.87284264340997,-1030.8753735362552,-483.76727896835655,121.0
1731822246.188269,-939.2141655222513,-495.7910573258996,-1027.2401907793246,-484.69103425741196,122.0
1731822246.188269,-944.6033613584004,-479.7880254155025,-1024.4876244119368,-491.98757907096297,122.0
1731822246.202176,-986.5986979608424,-526.5255551617593,-1044.7317028720863,-536.9823154378682,123.0
1731822246.202176,-908.5432459856384,-470.23632092867047,-1023.2721569263376,-472.80189229827374,123.0
1731822246.2175703,-968.6359584736638,-475.94714816100895,-1018.6533804810606,-483.5615844707936,124.0
1731822246.2175703,-933.9334267848171,-436.63331982679665,-1023.5975282224827,-465.5951050836593,124.0
1731822246.218377,-948.0328496177681,-481.24284649826586,-1026.282776390668,-479.4140354199335,125.0
1731822246.218377,-912.840391034726,-475.1804686700925,-985.5552658732049,-470.50559372548014,125.0
1731822246.2322004,-956.0100562232547,-461.65325053036213,-1039.4958429341204,-475.7863324629143,126.0
1731822246.2322004,-981.6134113199078,-514.9804839985445,-1051.295227294322,-513.7388372132555,126.0
1731822246.247577,-912.6646157368086,-530.9573366092518,-1006.0312181306072,-510.85163444746286,127.0
1731822246.247577,-909.2388673773967,-494.7513651382178,-998.4579207203351,-496.280984220095,127.0
1731822246.2483163,-917.9565741741098,-511.7716498365626,-1000.4512873967178,-526.8247471582144,128.0
1731822246.2483163,-977.2003293721937,-551.687602063641,-1048.0676936325617,-529.5286948261783,128.0
1731822246.261721,-956.0025764233433,-529.2743816291913,-1038.392572447192,-533.9118575742468,129.0
1731822246.261721,-915.0544118084945,-513.129233520478,-989.1904486301355,-529.1547048306093,129.0
1731822246.2775867,-916.4568742918782,-541.5412534838542,-1007.4000215143897,-531.7688948996365,130.0
1731822246.2775867,-928.4843925493769,-552.6749356519431,-999.6920877057128,-542.569725971669,130.0
1731822246.278382,-900.8614914766513,-540.2360283993185,-998.4915798199363,-535.2170826587826,131.0
1731822246.278382,-871.5070167244412,-553.1760822460055,-984.5006140857004,-531.0919730076566,131.0
1731822246.2917397,-935.1675937701948,-642.8027846841142,-998.2597060226835,-605.5683407252654,132.0
1731822246.2917397,-931.3940347149037,-596.4392449334264,-1000.6869010939263,-577.9267401527613,132.0
1731822246.307542,-869.4986904482357,-559.4217151720077,-972.1103255324997,-553.0788448471576,133.0
1731822246.307542,-914.7253006123938,-583.3795142881572,-1009.8608756852336,-568.7602453613654,133.0
1731822246.3081014,-918.7681324644946,-545.1278175413609,-988.72670103563,-542.5772057715803,134.0
1731822246.3081014,-872.931918607559,-509.51649016328156,-983.0831920024939,-529.8428464224562,134.0
1731822246.322192,-934.924500273075,-558.4343815837055,-1007.2279861164279,-559.694727868773,135.0
1731822246.322192,-951.7615298735909,-544.1591834528372,-1021.3573281490244,-543.4186832616106,135.0
1731822246.337612,-936.0165510601364,-517.2805224712938,-1021.5031842472963,-511.33408154174685,136.0
1731822246.337612,-943.993757665623,-522.729556706734,-1020.5158506589942,-520.8109880294651,136.0
1731822246.3383589,-930.750771922525,-519.0607148502022,-1030.613580539357,-505.26422391366214,137.0
1731822246.3383589,-942.2509642862715,-473.17214239388704,-1038.8600599416532,-471.50040711369365,137.0
1731822246.352236,-947.8907334194519,-487.84750982001424,-1012.1459545581602,-486.54228473547846,138.0
1731822246.352236,-954.2223840444349,-497.5263709053397,-1038.5758275450207,-485.54747134726495,138.0
1731822246.3843267,-957.9809834999032,-439.7224771901965,-1031.8290480249561,-438.6491259029135,139.0
1731822246.3843267,-938.372688032221,-432.78496277239174,-1035.0416220868938,-440.7995683774352,139.0
1731822246.384426,-947.9879708182998,-474.4848472783342,-1044.1370587791316,-482.2638391861692,140.0
1731822246.384426,-937.1273013469763,-435.1784987440333,-1030.045115746092,-447.9913959922269,140.0
1731822246.3855357,-959.7723955786787,-429.7593837082386,-1016.6787133044563,-448.8852320816368,141.0
1731822246.3855357,-929.411887738388,-435.9152590353042,-1014.0720030353405,-440.8294875770807,141.0
1731822246.3862207,-923.3308104104362,-460.9613690385595,-1012.6284016524442,-450.8150204587728,142.0
1731822246.3862207,-937.8079631389119,-387.3638778105378,-1020.4223531601019,-409.84067654423416,142.0
1731822246.429606,-955.1124802338891,-414.06302359420806,-1025.7143115974031,-413.50951840076596,143.0
1731822246.429606,-952.4758507651277,-450.00346216838807,-1031.8140884251334,-441.7682024659589,143.0
1731822246.4296312,-958.2278168969788,-404.42530140839517,-1030.0189364464022,-419.03709053527564,144.0
1731822246.4296312,-956.8290943135507,-409.99775234237313,-1027.6478398744948,-431.59567458648235,144.0
1731822246.430392,-935.5116645661183,-411.1159824291244,-1033.4970434051938,-427.11527443956584,145.0
1731822246.430392,-964.3612528243102,-423.40155378356576,-1045.520821762737,-430.92249259445816,145.0
1731822246.431138,-954.1438461453654,-394.7053014235571,-1032.8874397124164,-407.8136507682502,146.0
1731822246.431138,-961.8779592537321,-406.62436258234084,-1049.8628456112929,-402.94430102594197,146.0
1731822246.4422047,-971.3623455413617,-404.0812306124717,-1053.0791595731862,-397.9290951853618,147.0
1731822246.4422047,-984.6053312844597,-355.316675090231,-1066.5240999138914,-376.0282410448417,147.0
1731822246.4575648,-993.188401682768,-381.813866276294,-1047.2037767427973,-393.16072274185717,148.0
1731822246.4575648,-944.8651543552987,-396.1040240069851,-1036.0139960753731,-389.5629389844835,148.0
1731822246.4583693,-993.5848310780711,-391.1037777662277,-1082.5794904236682,-405.25555919855833,149.0
1731822246.4583693,-969.1333651677705,-358.08046115748584,-1057.4062238219194,-380.31790629401803,149.0
1731822246.505685,-963.4487172351219,-385.3031929349527,-1046.399698252324,-390.05286587867886,150.0
1731822246.505685,-978.7374282539822,-376.4321502400562,-1053.7710410649888,-391.17109596543014,150.0
1731822246.5057123,-998.4691404202022,-372.7296492839232,-1061.8342653694563,-422.11502819880843,151.0
1731822246.5057123,-982.9672551038675,-385.407910133712,-1070.2826993693598,-398.86781007423997,151.0
1731822246.5057302,-976.074619485531,-427.9043933302164,-1082.3588363262825,-432.6204071743414,152.0
1731822246.5057302,-961.0963201629929,-394.28643262851983,-1046.3099406533875,-413.77131139766425,152.0
1731822246.505752,-977.7014759662561,-379.97009559813887,-1056.905077227857,-409.84441644418985,153.0
1731822246.505752,-998.3232843219303,-421.37078810762614,-1058.7002292065881,-428.07268882822245,153.0
1731822246.5337908,-1025.2393443030305,-414.84840258490294,-1081.001252642367,-431.89112668298185,154.0
1731822246.5337908,-984.7998060821556,-372.2958208890632,-1061.4901945735328,-398.7369135757908,154.0
1731822246.534461,-989.3363047284074,-431.70787158515304,-1073.742106828373,-442.6134198559448,155.0
1731822246.534461,-988.0123801440932,-390.64750997163355,-1066.4605216146447,-408.28113826271147,155.0
1731822246.5355005,-991.6064240015112,-384.334558846429,-1075.51481940737,-405.3453167974949,156.0
1731822246.5355005,-1029.0764816575684,-439.9767903871834,-1078.3571433736943,-446.52535520959646,156.0
1731822246.5362203,-983.7376744947396,-464.3758976981044,-1071.3710102564655,-454.6708573130891,157.0
1731822246.5362203,-958.7588826906867,-390.84198476932943,-1039.634219232481,-404.8890490029007,157.0
1731822246.5467837,-980.9364894279279,-419.6392144281417,-1058.000867914874,-430.6868788972497,158.0
1731822246.5467837,-1017.3144962969236,-486.91253483109176,-1082.7103869221173,-490.4243008894846,158.0
1731822246.5617573,-980.899090428371,-427.246170938015,-1057.1444308250211,-448.9936891803518,159.0
1731822246.5617573,-959.611579880584,-406.6019231826067,-1038.1457390501164,-441.6934044668451,159.0
1731822246.5776927,-1011.1960199694149,-476.1827618582174,-1073.5625916304998,-488.51321201212704,160.0
1731822246.5776927,-960.6363124684431,-463.8448319043964,-1053.9804754625075,-476.272519457154,160.0
1731822246.5780735,-976.8936575758271,-411.29175772704184,-1046.3959583523683,-440.6873713787645,161.0
1731822246.5780735,-1037.3827994591556,-474.6793220760301,-1096.8920875540935,-488.0906033171341,161.0
1731822246.5922372,-999.9613605025224,-470.3634775271639,-1073.7869856278412,-467.1396837653592,162.0
1731822246.5922372,-987.6907487479039,-453.72092272434384,-1061.9801214677282,-459.97777535021305,162.0
1731822246.6076598,-948.1375668165274,-413.3861017022282,-1039.1368125383742,-416.07508977036923,163.0
1731822246.6076598,-974.941429798957,-476.0855244593695,-1066.0154735199176,-453.1000993316993,163.0
1731822246.6083808,-1007.4935190132819,-454.0275945207104,-1065.2226147293113,-448.60847948491573,164.0
1731822246.6083808,-1010.784630974289,-393.8114653341472,-1066.6325570126064,-411.314197126776,164.0
1731822246.622163,-1003.7760584573261,-459.9254167508334,-1090.167747433763,-454.61101891379803,165.0
1731822246.622163,-1000.5111257960089,-446.30844101216644,-1080.0176589540206,-448.67579768411815,165.0
1731822246.637548,-962.240729549434,-392.8540509454906,-1059.339752099011,-398.4900801787153,166.0
1731822246.637548,-1041.1226994148456,-448.5112420860678,-1092.796897102613,-452.05292734410614,166.0
1731822246.6383574,-967.9066779823042,-428.77952991984785,-1059.968055291567,-430.8701339950785,167.0
1731822246.6383574,-978.6102716554888,-407.9445472666994,-1070.5183130665682,-425.22662496194243,167.0
1731822246.6521757,-1014.6105486289598,-401.1902879467234,-1085.343276490923,-418.1170751461759,168.0
1731822246.6521757,-1037.7006909553893,-483.28109197411686,-1104.472864764277,-484.5227387594059,168.0
1731822246.667544,-980.7868934297003,-419.92344682477415,-1071.1204369594343,-435.30565534252673,169.0
1731822246.667544,-991.2810527053662,-373.63844497315586,-1062.3503715633415,-395.864670409821,169.0
1731822246.6683922,-994.2430534702726,-453.45164992753416,-1073.9478013259359,-461.54105353169143,170.0
1731822246.6683922,-1002.8635228681378,-448.1709111901,-1077.9644538783468,-456.31267339363694,170.0
1731822246.682225,-946.2077784393914,-357.41849886532873,-1058.2589210118167,-384.1812229482457,171.0
1731822246.682225,-954.0503486464731,-420.3460555197671,-1039.7090172315948,-440.0964671857655,171.0
1731822246.6976073,-978.7187287542038,-463.5942586073652,-1083.0656774179079,-464.6638699946925,172.0
1731822246.6976073,-1013.6381746404804,-431.30396238993853,-1081.049871341791,-450.70656336005777,172.0
1731822246.6984024,-981.1870627249591,-444.4983294336125,-1058.9620222034864,-453.6685641249642,173.0
1731822246.6984024,-997.3770896331407,-483.7448395686224,-1074.8416374153458,-481.77017239201814,173.0
1731822246.7284315,-982.0472397147678,-465.0453397901729,-1073.75332652824,-467.61839095968753,174.0
1731822246.7284315,-988.1320569426753,-414.5753898881376,-1048.232249230612,-428.74213092029095,174.0
1731822246.7291803,-947.5017838240601,-437.92732521146536,-1061.1910025770776,-430.11841410398483,175.0
1731822246.7291803,-1014.6217683288269,-486.5310650356114,-1101.2939498019405,-472.36058410350233,175.0
1731822246.7295485,-1022.423199636396,-461.30917973443866,-1082.5794904236682,-466.7843932695687,176.0
1731822246.7295485,-960.7148503675126,-477.5964440414682,-1032.7752427137457,-465.9354359796271,176.0
1731822246.742243,-983.8423916934989,-498.76801769062877,-1060.3644846868701,-475.27396616898477,177.0
1731822246.742243,-1008.1816606051289,-458.5977522665635,-1074.5948040182702,-453.82937982305884,177.0
1731822246.7575605,-994.7030611648224,-473.9014228852466,-1066.4530418147333,-463.4147434094921,178.0
1731822246.7575605,-963.9199446295388,-481.5719576943666,-1056.2618144354783,-456.37625169288367,178.0
1731822246.7583327,-974.1074321088381,-476.3360977564007,-1062.2643538643606,-466.2196683762595,179.0
1731822246.7583327,-984.9007833809592,-434.4679177524522,-1056.4562892331742,-454.8129735114053,179.0
1731822246.7722373,-990.5704717137851,-494.2352589443326,-1066.7971126106568,-486.041138141416,180.0
1731822246.7722373,-998.6860546176322,-521.2784755239263,-1070.1069240714423,-506.10944130364805,180.0
1731822246.7875872,-969.0735267684795,-435.11118054483086,-1064.8336651339196,-444.55816783290356,181.0
1731822246.7875872,-977.9109103637747,-514.6551127023995,-1060.7571741822176,-503.54760983400047,181.0
1731822246.7883248,-964.3949119239114,-522.1461323136464,-1074.1198367238976,-505.85512810666114,182.0
1731822246.7883248,-1023.7733035204001,-534.9328502621502,-1054.0403138617985,-533.3097336813807,182.0
1731822246.801672,-975.3191596944816,-512.4149126289412,-1051.2802676944993,-503.03150364011526,183.0
1731822246.801672,-981.0636460264213,-558.0379521884024,-1054.67235695431,-537.1094720363617,183.0
1731822246.8173501,-988.4162893393077,-511.6444932380691,-1071.9955735490657,-499.0597298871726,184.0
1731822246.8173501,-979.51158754481,-506.3450550008565,-1054.1375512606464,-503.14370063878596,184.0
1731822246.818504,-969.1483247675933,-537.539560531266,-1044.252995677758,-515.3806532938033,185.0
1731822246.818504,-978.8982439520769,-514.890726399608,-1048.9914489216171,-491.7594451736659,185.0
1731822246.8322227,-986.0077937678434,-455.7404687004164,-1071.9843538491987,-454.23702891822904,186.0
1731822246.8322227,-962.771795343142,-487.14066872838885,-1052.9220837750472,-484.9341277545318,186.0
1731822246.8475685,-989.3138653286733,-498.40150749497116,-1068.0649386956356,-478.49775993078947,187.0
1731822246.8475685,-1007.1681477171369,-447.00406240392476,-1078.7797520686872,-448.6309188846499,187.0
1731822246.8483012,-1004.5090788486414,-477.1588757466525,-1078.1103099766187,-461.5560131315142,188.0
1731822246.8483012,-994.9311950621195,-526.9406840568408,-1078.4955196720548,-497.6871866034344,188.0
1731822246.8622174,-978.6252312553115,-486.1271558403969,-1061.5986516722478,-469.05077264271677,189.0
1731822246.8622174,-1023.1674397275783,-491.8192835729569,-1085.922960984055,-472.3418846037239,189.0
1731822246.877678,-983.2402678006329,-511.3266017418355,-1064.8561045336537,-487.3725425256416,190.0
1731822246.877678,-963.7628688313998,-488.8946818076074,-1046.3585593528114,-465.0715190898627,190.0
1731822246.8782954,-938.5035845306702,-430.0099570052698,-1023.0552427289076,-440.37321978248656,191.0
1731822246.8782954,-935.4518261668272,-478.6660554287955,-1012.5760430530645,-464.86582459229976,191.0
1731822246.8922377,-959.600360180717,-515.9341584872454,-1048.449163428042,-492.0025386707857,192.0
1731822246.8922377,-926.2628919756971,-434.1275868564844,-1006.3678091266192,-433.86205395963043,192.0
1731822246.907595,-919.2505795587786,-472.8131119981408,-1010.2797444802709,-459.2223155591637,193.0
1731822246.907595,-919.486193255987,-501.43082645908,-1017.2883169972338,-482.4246548842639,193.0
1731822246.9083312,-921.8049312285148,-448.60847948491573,-1013.3128033443354,-452.5839931378141,194.0
1731822246.9083312,-940.2987365094014,-444.1766980374232,-1015.0967356231995,-459.6561439540237,194.0
1731822246.9384794,-935.4780054665171,-489.51550520025194,-1012.063676759135,-476.7923655509949,195.0
1731822246.9384794,-937.5125110424124,-496.62131511606276,-1038.8600599416532,-489.3846087018028,195.0
1731822246.9391227,-945.6954121454619,-420.74248491507024,-1039.6267394325696,-440.96786387544125,196.0
1731822246.9391227,-943.8479015673511,-473.4040161911398,-1030.2433304437436,-486.4899261360988,196.0
1731822246.939568,-978.1914028604515,-499.25420468486845,-1049.3990980167873,-490.3794220900163,197.0
1731822246.939568,-979.1114182495512,-446.38323901128024,-1031.7131111263297,-459.0054013617337,197.0
1731822246.952556,-935.5191443660296,-437.15316592063755,-1036.4104254706763,-447.23593620117754,198.0
1731822246.952556,-966.0554275042377,-487.5632774233818,-1054.8256928524934,-478.79695192724466,198.0
1731822246.9676485,-1001.1394289885648,-472.02025320753455,-1087.1720875692554,-470.4120962265879,199.0
1731822246.9676485,-983.9171896926127,-437.979683810845,-1062.1484169657342,-447.12373920250684,199.0
1731822246.9684305,-983.4085632986389,-524.5733273848891,-1074.7032611169852,-517.1084870733321,200.0
1731822246.9684305,-987.3204986522906,-504.9799915170297,-1077.0668778889813,-501.55050325766206,200.0
1731822246.9823995,-959.4283247827552,-442.0524348625913,-1041.453680560924,-457.40659413067624,0.0
1731822246.9831185,-990.1927418182604,-499.0223308876157,-1061.8810141189024,-502.3265324984677,101.0
1731822246.9831185,-967.4504101877101,-521.7123039187863,-1073.4111256822944,-508.28419312788174,101.0
1731822246.9971983,-977.6939961663447,-465.5128272846341,-1060.5309102348983,-469.4677714877762,102.0
1731822246.9971983,-959.3273474839516,-474.46240787860006,-1038.8432303918526,-482.68083803122863,102.0
1731822247.0123997,-990.125423619058,-533.4668094795197,-1081.5229686861858,-507.364177738782,103.0
1731822247.0123997,-969.6195521620102,-475.06079187151045,-1058.4664854593575,-455.44688655389473,103.0
1731822247.0132172,-965.6440385091119,-460.5051012439653,-1048.1555812815204,-452.94863338349387,104.0
1731822247.0132172,-957.0385287110694,-467.3678176626563,-1031.0791980838403,-454.0182447708212,104.0
1731822247.0267978,-990.5816914136522,-491.673427474685,-1059.3004831494763,-465.85128823062405,105.0
1731822247.0267978,-967.3008141894825,-439.52800239250064,-1054.8462623022497,-435.640376388561,105.0
1731822247.0423985,-986.1125109666027,-499.73291187919676,-1057.4679321711883,-474.4680177285336,106.0
1731822247.0423985,-974.0700331092812,-499.6543739801273,-1062.258744014427,-465.0584294400178,106.0
1731822247.0434608,-973.3407526179217,-428.70099202077836,-1065.7480706730857,-419.0800993847661,107.0
1731822247.0434608,-992.2833458934911,-450.5569673618302,-1055.0856158994138,-438.54627865413204,107.0
1731822247.0572555,-988.3377514402382,-487.7577522210777,-1067.2365508554503,-469.32565528946,108.0
1731822247.0572555,-978.2138422601856,-449.94362376909703,-1054.588209205307,-447.42854104889557,108.0
1731822247.0725617,-970.008501757402,-429.76686350815,-1055.5643230937421,-444.1224694880657,109.0
1731822247.0725617,-993.9775205734186,-491.69960677437484,-1062.307362713851,-486.93684418080375,109.0
1731822247.0734682,-974.3318261061795,-453.27587462961674,-1077.551194933243,-457.84790232544765,110.0
1731822247.0734682,-989.0146733322181,-446.6225926084444,-1059.726831744425,-466.48333132313564,110.0
1731822247.0869412,-1000.3316105981357,-477.7497799396515,-1070.1798521205783,-480.75478955404833,111.0
1731822247.0869412,-1002.0332650779746,-500.28641707263887,-1070.4940037168562,-489.93624394526705,111.0
1731822247.1025755,-990.7499869116582,-436.44258492905647,-1072.6855850908905,-448.09424324100837,112.0
1731822247.1025755,-995.6155967540108,-478.10507043544203,-1055.7737574912608,-495.5498337787576,112.0
1731822247.1033132,-993.4950734791346,-459.9254167508334,-1051.5102715417743,-476.00511661032215,113.0
1731822247.1033132,-977.088132373523,-403.0415384247899,-1064.8804138833657,-428.90855646831915,113.0
1731822247.1172273,-987.5972512490116,-380.0972521966323,-1067.8723338479176,-414.09107284387574,114.0
1731822247.1172273,-999.4078553090803,-452.48675573896617,-1056.5329571822658,-467.6389604094438,114.0
1731822247.1325529,-1006.6557814232074,-416.3742817668244,-1079.7427763072774,-444.3057245858945,115.0
1731822247.1325529,-976.2354351836257,-389.1814691890031,-1060.2242384385318,-430.7822463461198,115.0
1731822247.1333256,-971.1940500433557,-439.66637869086117,-1036.9022223148495,-473.3236083420925,116.0
1731822247.1333256,-994.1682554711588,-461.02120743785053,-1069.3196751307696,-479.3261477709748,116.0
1731822247.147235,-1004.924207743723,-441.97015706356615,-1055.1417143987492,-481.4728503455408,117.0
1731822247.147235,-994.6507025654428,-453.67230402491987,-1062.6402138099074,-488.6160592609085,117.0
1731822247.162534,-1016.042930311989,-514.1614459082484,-1084.3877320522442,-522.4920730595477,118.0
1731822247.162534,-992.3282246929593,-470.06428553070873,-1061.2788902260363,-485.27258870052174,118.0
1731822247.1633246,-961.0065625640564,-422.904147089459,-1044.6064162235707,-450.06891041761264,119.0
1731822247.1633246,-977.6266779671423,-491.84546287264675,-1055.2352118976414,-498.79232704034075,119.0
1731822247.1772215,-1006.7455390221439,-470.68136902339756,-1058.919013353996,-470.89641327084973,120.0
1731822247.1772215,-993.2557198819704,-415.6337815755978,-1049.0082784714177,-446.62072265846655,120.0
1731822247.1925209,-999.3143578101881,-473.7368672871962,-1062.6252542100847,-487.79328127065673,121.0
1731822247.1925209,-989.3624840280972,-474.72046097554266,-1062.4681784119457,-472.2427772548981,121.0
1731822247.1933491,-982.9560354040004,-443.3875791467726,-1052.609802128747,-442.46569380769506,122.0
1731822247.1933491,-983.1168511020951,-498.3528887955472,-1069.5216297283769,-484.726563306991,122.0
1731822247.2072272,-1016.0092712123878,-544.4172365497798,-1063.960398494266,-523.1689949515276,123.0
1731822247.2072272,-997.1040769363753,-487.8587295198813,-1053.4512796187773,-456.6062555401586,123.0
1731822247.2225373,-1000.6083631948568,-471.46674801409245,-1070.1910718204454,-472.6878253496252,124.0
1731822247.2225373,-986.8978899572976,-528.3319268403575,-1071.137266509235,-501.8590450040065,124.0
1731822247.2233117,-1017.0190442004241,-485.5624309470877,-1068.4071395415813,-473.74995693704113,125.0
1731822247.2233117,-1002.0444847778417,-482.77246558014303,-1060.4561122357845,-479.07557447394356,125.0
1731822247.2368646,-1016.0167510122992,-558.7111341804266,-1063.7995827961713,-544.7369979959913,126.0
1731822247.2368646,-1014.5432304297574,-538.6951896175742,-1074.9669240638614,-526.0187987177633,126.0
1731822247.2524023,-983.8910103929229,-530.7703416114673,-1060.426193036139,-505.04917966620997,127.0
1731822247.2524023,-1004.2996444511227,-510.30186915397644,-1049.6365816639736,-525.8617229196243,127.0
1731822247.2533195,-1002.8784824679606,-527.3782523516566,-1053.357782119885,-520.2144739865325,128.0
1731822247.2533195,-973.879298211541,-472.72709429915994,-1044.905608220026,-491.5556206260808,128.0
1731822247.2668061,-961.0177822639234,-432.7662632726133,-1021.579852196388,-487.46043017460033,129.0
1731822247.2668061,-973.0640000212006,-469.53321973700076,-1043.577943735756,-503.32134588668123,129.0
1731822247.2825563,-1007.7179130106233,-425.9110266538337,-1066.1856389679015,-467.0517961164005,130.0
1731822247.2825563,-993.2744193817489,-411.95745991915464,-1052.9688325244933,-452.9336737836711,130.0
1731822247.2833312,-984.9531419803388,-430.18573230318725,-1051.1325416462496,-453.21790618030354,131.0
1731822247.2833312,-1019.094688675832,-450.60558606125414,-1080.5244153980166,-445.7493259687908,131.0
1731822247.3130744,-1014.0794828352518,-400.73402015212923,-1072.5285092927516,-402.0934737860225,132.0
1731822247.3130744,-1017.2770972973667,-411.6059093233198,-1078.8751195175573,-432.64471652405336,132.0
1731822247.3140607,-998.7234536171891,-408.9804995544255,-1069.7273242259398,-418.8145664879121,133.0
1731822247.3140607,-1004.8045309451409,-392.8166519459337,-1082.1400521788746,-417.15779080754146,133.0
1731822247.314777,-1022.5540961348452,-364.8384603774175,-1086.511995227076,-405.75483584264293,134.0
1731822247.314777,-1001.5769972833805,-404.6758747054264,-1082.9815296689048,-437.895536061842,134.0
1731822247.3272579,-1045.1243923674338,-411.7555053215474,-1099.4857081733644,-453.3375829788856,135.0
1731822247.3272579,-988.7753197350539,-367.74810254294425,-1052.7893173266202,-421.5933121549897,135.0
1731822247.3595073,-1008.2676783041097,-416.5650166645646,-1076.791995242238,-456.3182832435705,136.0
1731822247.3595073,-1030.3817067421041,-442.9911497514695,-1091.9610294625163,-478.6267864792608,136.0
1731822247.35953,-1013.8737883376889,-366.7009305553511,-1073.7215373786166,-428.6953821708448,137.0
1731822247.35953,-1002.3361969743855,-394.9222156209871,-1076.1823915494606,-447.43602084880695,137.0
1731822247.3603375,-1007.4262008140795,-443.1818846492097,-1084.3017143532634,-481.4017922463827,138.0
1731822247.3603375,-1025.4300792007707,-456.34259259328246,-1099.7512410702184,-486.3982985871844,138.0
1731822247.360898,-991.1688557066955,-413.43472040165216,-1042.358736350201,-452.06601699395105,139.0
1731822247.360898,-998.3307641218416,-457.5244009792805,-1060.0709025403485,-482.0188757390715,139.0
1731822247.3721857,-1020.373734460678,-446.1850243136287,-1086.3511795289814,-472.3138353540562,140.0
1731822247.3721857,-1006.4164278260432,-396.7173675997183,-1069.2037382321432,-445.20704047521576,140.0
1731822247.3869352,-1015.3286094204523,-460.31810624618083,-1057.9204600658268,-487.52774837380275,141.0
1731822247.3869352,-1052.4994750800543,-470.50559372548014,-1101.46785514988,-478.15929898479953,141.0
1731822247.402398,-1038.0372819514014,-441.6896645668894,-1073.0633149864152,-457.2083794330247,142.0
1731822247.402398,-1026.585708287079,-466.6684563709423,-1059.3827609485015,-477.30660179490224,142.0
1731822247.4030497,-1026.705385085661,-449.52475497405976,-1100.6899559590966,-440.4199685319327,143.0
1731822247.4030497,-1050.296674006153,-469.57435863651335,-1090.771741276607,-480.0255090626888,143.0
1731822247.4166968,-1001.6330957827158,-418.5995222404599,-1054.528370806016,-426.9301493917592,144.0
1731822247.4166968,-1013.9635459366255,-468.35141135100275,-1079.0995135148987,-461.3073097844608,144.0
1731822247.432156,-1031.2381438319571,-461.2979600345716,-1082.62997907307,-455.491765353363,145.0
1731822247.432156,-1042.1923108021729,-450.45972996298224,-1072.5285092927516,-458.3527888194658,145.0
1731822247.447575,-1045.9209910579957,-511.41261944081634,-1091.6057389667258,-494.1024924959056,146.0
1731822247.447575,-1015.7212989157997,-491.25829857960343,-1092.7688478529453,-456.1163286459632,146.0
1731822247.4483488,-1027.7338575734757,-479.3317576209083,-1081.4444307871163,-471.08340826863423,147.0
1731822247.4483488,-996.722607140895,-480.12835631147027,-1055.5979821933433,-477.4412381933071,147.0
1731822247.4625905,-1025.8526878957637,-503.6149280332029,-1082.992749368772,-482.3292874353938,148.0
1731822247.4625905,-1050.0161815094762,-515.9790372867137,-1086.6167124258354,-492.4793759151362,148.0
1731822247.463384,-995.8399907513522,-460.1124117486179,-1066.009863669984,-454.7587449620478,149.0
1731822247.463384,-995.8100715517066,-512.5906879268587,-1076.4516643462703,-474.89810622343794,149.0
1731822247.4770617,-1029.768363149371,-510.30560905393213,-1073.777635877952,-473.29368914244696,150.0
1731822247.4770617,-1011.2745578684844,-503.1624001385644,-1088.1313719078898,-480.5042162570171,150.0
1731822247.492652,-1014.3749349317513,-523.0923270024359,-1062.9768048059195,-493.5863863020204,151.0
1731822247.492652,-1020.2989364615642,-531.7240161001682,-1083.3256004648283,-498.5529734431766,151.0
1731822247.49337,-1018.9563123774715,-475.3038853686303,-1073.3849463826045,-474.52037632791325,152.0
1731822247.49337,-1004.0602908539586,-482.712627180852,-1062.2437844146043,-476.11357370903715,152.0
1731822247.5067365,-1010.3395828795619,-474.90745597332716,-1074.813588165678,-459.44857950648293,153.0
1731822247.5067365,-1005.0625840420835,-468.5159669490531,-1068.324861742556,-464.58346214564517,153.0
1731822247.5223386,-992.6012373897247,-453.7321424242109,-1056.6900329804048,-471.1245471681468,154.0
1731822247.5223386,-1013.0323108476587,-501.78237705491483,-1077.5362353334203,-494.4727425915189,154.0
1731822247.5232003,-1033.6503793033771,-492.50742516480386,-1084.2418759539723,-483.1782447253354,155.0
1731822247.5232003,-996.8348041395657,-442.2543894601986,-1069.5029302285984,-452.6494413870387,155.0
1731822247.5366871,-990.4283555154689,-471.5639854129404,-1070.9689710112289,-469.3929734886624,156.0
1731822247.5366871,-1009.4008679906838,-501.8384755542502,-1087.0056620212272,-491.106832631398,156.0
1731822247.5524197,-1050.1807371075265,-483.1913343751803,-1096.778020605445,-474.36704042972997,157.0
1731822247.5524197,-1027.0382361817174,-488.7824848089367,-1084.0062622567639,-485.85975299356505,157.0
1731822247.5531013,-1006.7044001226313,-476.9943201486021,-1075.6737651554868,-472.9944971459918,158.0
1731822247.5531013,-1010.2460853806697,-449.11710587888956,-1073.3699867827818,-462.81448946660385,158.0
1731822247.5673492,-985.0541192791425,-448.33920668810606,-1061.3873473247513,-465.5820154338144,159.0
1731822247.5673492,-1011.9813989601098,-482.7425463804975,-1076.3768663471565,-484.6517653078772,159.0
1731822247.5824418,-1047.6488248375244,-495.69755982700735,-1100.5440998608246,-495.12348518380895,160.0
1731822247.5824418,-987.6458699484356,-445.32484732382,-1062.778590108268,-461.7897568787448,160.0
1731822247.597588,-995.5669780545868,-472.8991296971217,-1072.4312718939036,-480.7248703544028,161.0
1731822247.597588,-1025.920006094966,-477.671242040582,-1084.765461947769,-486.86578608164564,161.0
1731822247.5982728,-1028.249963767361,-456.9222770864144,-1069.544069128111,-471.77902966039255,162.0
1731822247.5982728,-1004.3781823501922,-465.9616152793169,-1068.3847001418471,-483.0660477266647,162.0
1731822247.6125622,-1008.469632901717,-467.45757526159286,-1086.4558967277408,-472.1791989556514,163.0
1731822247.6125622,-963.4337576352991,-418.2330120448023,-1052.538744029589,-439.09978384757414,163.0
1731822247.613326,-996.9320415384136,-437.7926888130605,-1066.7541037611663,-462.0104109761305,164.0
1731822247.613326,-1075.9636074020527,-483.69248096924275,-1107.4329955792055,-492.52425471460447,164.0
1731822247.6272297,-1079.9727801545523,-485.0014459537342,-1114.6697019934654,-497.45344285620376,165.0
1731822247.6272297,-992.0813912958838,-430.96737139392644,-1064.3867470892146,-450.65981461061165,165.0
1731822247.6425667,-966.1414452032186,-452.7036699363962,-1038.1812680996954,-456.87926823692396,166.0
1731822247.6425667,-953.6950581506826,-449.23304277751595,-1050.9567663483322,-444.47775998385623,166.0
1731822247.6433597,-974.3280862062238,-447.9839161923155,-1055.87847469002,-453.5582370762713,167.0
1731822247.6433597,-984.3023993880488,-455.42631710413843,-1034.1122569479048,-460.02826399961486,167.0
1731822247.6572533,-958.8748195893131,-470.5504725249484,-1048.4547732779756,-460.2788372966461,168.0
1731822247.6572533,-960.419398271013,-486.3440700378269,-1038.6150964945555,-482.422784934286,168.0
1731822247.672088,-946.9033998311497,-446.8058477062732,-1020.5139807090163,-461.2474713851698,169.0
1731822247.672088,-942.4005602844991,-452.97668263316154,-1041.019852166064,-441.3736430206336,169.0
1731822247.6874945,-969.4026379645802,-497.91532050073147,-1048.9633996719494,-488.8853320577182,170.0
1731822247.6874945,-979.6911027426831,-474.9747741725296,-1033.506393155083,-482.7743355301209,170.0
1731822247.6883216,-967.1886171908118,-470.374697227031,-1047.5833765882999,-464.18329285038635,171.0
1731822247.6883216,-1014.7003062278964,-518.7727425536141,-1081.025561992079,-504.83226546877995,171.0
1731822247.702558,-963.7778284312226,-440.0590681862086,-1047.003692095168,-443.38944909675047,172.0
1731822247.702558,-966.9230842939578,-433.0205764696002,-1046.3305101031438,-436.9717807727866,172.0
1731822247.7032945,-993.3192981812172,-491.10496268142015,-1049.0868163704872,-463.9514190531336,173.0
1731822247.7032945,-997.0404986371286,-475.4011227674782,-1064.540082987398,-461.3185294843279,173.0
1731822247.717207,-982.7914798059501,-457.26634788233787,-1058.3468086607754,-456.565116640646,174.0
1731822247.717207,-1017.5239306944422,-486.77415853273124,-1075.9018990527838,-470.0137968813069,174.0
1731822247.732576,-993.9289018739946,-481.0371520007029,-1057.6362276691943,-466.78252331959084,175.0
1731822247.732576,-964.3350735246204,-423.4539123829454,-1046.4314874019474,-434.8475175979547,175.0
1731822247.7333193,-1001.6817144821398,-467.17334286496043,-1075.0940806623548,-462.3507418720983,176.0
1731822247.7333193,-1016.3271627086215,-523.1596452016383,-1067.7002984499559,-506.4516421495937,176.0
1731822247.746688,-985.8768972693942,-484.13752906396985,-1065.5348963756114,-487.1687179780565,177.0
1731822247.746688,-1003.0430380660109,-500.26023777294904,-1069.0578821338713,-488.08125356724486,177.0
1731822247.7625768,-996.3373974454589,-544.6715497467667,-1059.5360968466848,-502.9697952908464,178.0
1731822247.7625768,-1000.4699868964963,-520.631472831592,-1063.3171357018873,-492.9618230094202,178.0
1731822247.763291,-955.5388288288377,-492.6794605627656,-1028.1695559183136,-471.0160900694318,179.0
1731822247.763291,-1008.2863778038882,-547.2894797157496,-1064.2670702906325,-509.9746279078536,179.0
1731822247.7774162,-985.9255159688182,-517.845247364603,-1058.9489325536415,-492.2961208173074,180.0
1731822247.7774162,-981.863984616939,-502.43685954716057,-1042.5419914480299,-474.4941970282234,180.0
1731822247.7926688,-981.863984616939,-497.32815620768815,-1045.7620453098789,-474.0304494337179,181.0
1731822247.7926688,-993.8054851754569,-529.001368932426,-1058.8890941543505,-488.19719046587124,181.0
1731822247.7930243,-1017.7632842916064,-506.1991989025846,-1078.4225916229188,-477.22432399587706,182.0
1731822247.7930243,-978.909463651944,-463.31376611068845,-1048.9260006723925,-439.7879254394211,182.0
1731822247.807322,-998.4130419208668,-502.7472712434828,-1069.712364626117,-467.2761901137419,183.0
1731822247.807322,-974.2832074067555,-464.0393067020923,-1077.008909439668,-441.53819861868396,183.0
1731822247.8226068,-1018.1335343872197,-469.27142674010247,-1072.7379436902702,-469.00028399331495,184.0
1731822247.8226068,-994.527285866905,-484.36192306131124,-1052.983792124316,-468.4579984997399,184.0
1731822247.8233669,-1001.9547271789052,-485.98877954203635,-1085.741575836204,-437.3794298679568,185.0
1731822247.8233669,-1000.0398984015919,-471.31341211590916,-1069.5889479275793,-446.0896568647586,185.0
1731822247.8369365,-1001.341383586172,-489.743639097549,-1062.0044308174402,-479.85721356468275,186.0
1731822247.8369365,-1022.4157198364846,-528.3431465402246,-1076.6386593440548,-502.1170981009491,186.0
1731822247.8524177,-1010.2760045803152,-526.7611688589677,-1075.4157120585442,-497.16547055961564,187.0
1731822247.8524177,-983.1729496014304,-514.0155898099765,-1053.888847913593,-501.27936051087454,187.0
1731822247.8675904,-983.6067779962905,-533.6538044773042,-1052.609802128747,-527.5446778996848,188.0
1731822247.8675904,-1004.6175359473564,-510.96009154617786,-1075.213757460937,-503.31386608676985,188.0
1731822247.868268,-965.3635460124351,-467.6632697591558,-1047.171987593174,-467.29488961352035,189.0
1731822247.868268,-1003.8171973568387,-548.1907956050709,-1079.0172357158735,-523.0044393534772,189.0
1731822247.88269,-986.4491019626148,-501.07179606333375,-1055.9719721889123,-497.9957283497788,190.0
1731822247.88269,-987.2120415535755,-471.2984525160864,-1056.1514873867854,-493.57516660215333,190.0
1731822247.8834069,-977.0619530738331,-485.65592844597995,-1053.0174512239173,-509.1967287170701,191.0
1731822247.8834069,-999.3106179102324,-511.44627854041755,-1060.4411526359618,-518.1276098112576,191.0
1731822247.8972514,-985.7273012711667,-458.01058797352016,-1060.2878167377785,-493.53402770264074,192.0
1731822247.8972514,-1005.1486017410643,-471.6275637121871,-1069.5852080276236,-507.0425463425927,192.0
1731822247.9126418,-994.2430534702726,-488.4159746132791,-1069.0279629342258,-505.9317960557528,193.0
1731822247.9126418,-991.8270780988969,-456.9110573865473,-1067.8573742480949,-477.29538209503517,193.0
1731822247.913346,-981.8265856173821,-428.8992067184299,-1052.793057226576,-439.7093875403516,194.0
1731822247.913346,-1003.4095482616685,-480.0498184124008,-1069.327154930681,-483.45499732205644,194.0
1731822247.926689,-1033.5120030050166,-466.20096887648106,-1095.727108717896,-474.909325923305,195.0
1731822247.926689,-982.828878805507,-414.6090489877388,-1056.506777882576,-428.4485487737693,195.0
1731822247.942563,-992.5526186903007,-422.9078869894147,-1064.0389363933355,-439.9599608373828,196.0
1731822247.942563,-1022.5428764349781,-463.1903494121507,-1090.094819384627,-470.2868095780723,196.0
1731822247.9432716,-983.9695482919924,-409.4853860484436,-1081.4893095865846,-437.86935676215217,197.0
1731822247.9432716,-1027.2214912795462,-433.5740816630423,-1086.5942730261013,-454.1977599686943,197.0
1731822247.9571629,-1043.8715258822776,-460.0039546499029,-1090.0499405851588,-479.55802156822756,198.0
1731822247.9571629,-999.2283401112072,-427.78097663167864,-1071.5037767048925,-437.6374829648994,198.0
1731822247.972454,-984.8484247815795,-393.777806234546,-1065.4900175761431,-411.2936276770197,199.0
1731822247.972454,-971.2651081425138,-439.49434329289943,-1060.8039229316637,-434.2902725045569,199.0
1731822247.9733603,-991.7821992994286,-442.1384525615722,-1084.4812295511365,-463.7307649557479,200.0
1731822247.9733603,-1006.1134959296323,-404.4813999077305,-1085.1581514431164,-443.7409996925853,200.0
1731822247.987507,-1007.3607525648549,-444.49084963370115,-1059.7604908440262,-457.5973290284164,0.0
1731822247.988233,-1009.6383516378701,-454.7419154122472,-1080.5131956981495,-488.6609380603768,101.0
1731822247.988233,-1000.0567279513925,-418.0871559465304,-1090.7306023770943,-453.74149217410013,101.0
1731822248.0181332,-1007.8319799592718,-425.82126905489713,-1089.2009832952172,-466.44219242362306,102.0
1731822248.0181332,-999.761275854893,-445.5081024216488,-1078.5086093218997,-470.6533197737299,102.0
1731822248.0194602,-1000.2025840496644,-439.78979538939893,-1086.706470024772,-473.6901185377501,103.0
1731822248.0194602,-995.419252006337,-406.76647878065705,-1073.149332685396,-442.0505649126135,103.0
1731822248.0194743,-1004.2341962018982,-457.8123732758686,-1071.8889864003286,-481.4990296452306,104.0
1731822248.0194743,-1037.825977603905,-452.3184602409601,-1093.4308101451024,-490.38877183990553,104.0
1731822248.0483508,-1003.9200446056202,-401.09679044783115,-1077.2407832369208,-438.0825310596265,105.0
1731822248.0483508,-984.7717568324879,-403.62496281787753,-1069.2710564313456,-457.795543726068,105.0
1731822248.0484722,-1020.3980438103899,-489.21631320379674,-1092.2228224594146,-501.57855250732973,106.0
1731822248.0484722,-1003.0112489163876,-426.2401378499344,-1088.7708948003128,-483.67191151948646,106.0
1731822248.079099,-1004.8624993944541,-428.33448182512075,-1072.0086631989107,-467.6913190088235,107.0
1731822248.079099,-987.5916413990781,-456.08827939629555,-1064.2221914911643,-469.9502185820602,107.0
1731822248.079559,-999.7949349544942,-457.46082268003374,-1082.1774511784315,-471.59951446251944,108.0
1731822248.079559,-996.5786209926009,-406.3401301857084,-1069.2934958310798,-443.8270173915662,108.0
1731822248.0802608,-1006.5678937742487,-486.5983832348138,-1069.2710564313456,-494.6185986897908,109.0
1731822248.0802608,-1006.2200830783695,-475.4198222672567,-1075.9617374520749,-499.05412003723904,109.0
1731822248.081232,-991.608293951489,-416.9016076605767,-1069.8283015247434,-451.1609612046741,110.0
1731822248.081232,-996.0812142984942,-470.4457553261891,-1068.9943038346246,-487.01164217991754,110.0
1731822248.0923307,-1009.8664855351672,-490.43926048930734,-1081.1003599911928,-495.5124347792007,111.0
1731822248.0923307,-999.8398137539625,-433.97051105834544,-1066.9373588589951,-437.31211166875437,111.0
1731822248.108493,-1003.0523878159001,-445.9120116168633,-1083.7108101602644,-456.6062555401586,112.0
1731822248.108493,-988.593934587203,-478.4603609312326,-1083.2059236662462,-482.4003455345519,112.0
1731822248.1226268,-992.0496021462604,-461.42511663306504,-1069.2822761312127,-480.4742970573716,113.0
1731822248.1226268,-991.5559353521094,-421.8345357021317,-1058.8068163553253,-446.58332365890965,113.0
1731822248.123376,-1021.2619607001543,-488.32621701434255,-1083.1909640664235,-490.31397384079173,114.0
1731822248.123376,-1003.5049157105386,-476.5193528542295,-1066.503530464135,-474.71111122565344,114.0
1731822248.1376002,-985.1083478285,-438.33497430663556,-1072.7080244906247,-447.2228465513326,115.0
1731822248.1376002,-986.9147195070982,-472.43538210261613,-1064.6821991857141,-464.1234544510953,115.0
1731822248.1526427,-1005.6403985852376,-494.134281645529,-1084.7542422479019,-495.30674028163776,116.0
1731822248.1526427,-992.2590365437791,-448.5187218859792,-1071.571094904095,-455.3122501554899,116.0
1731822248.1534152,-984.7605371326208,-434.07148835714906,-1059.7904100436717,-455.96299274777994,117.0
1731822248.1534152,-992.3263547429815,-483.66256176959723,-1065.1609063800424,-491.75383532373235,117.0
1731822248.167515,-989.6373666748405,-461.91130362730473,-1064.7233380852267,-459.26158450869843,118.0
1731822248.167515,-965.8665625564754,-414.17522059287876,-1052.370448531583,-432.02015323145315,118.0
1731822248.1681535,-987.2026918036863,-477.6301031410694,-1068.736250737682,-482.22831013659015,119.0
1731822248.1681535,-991.6980515504256,-470.39339672680944,-1060.2915566377342,-472.0670019569807,119.0
1731822248.1980066,-978.1147349113598,-415.6113421758637,-1050.234965656884,-428.9683948676102,120.0
1731822248.1980066,-976.8805679259822,-458.78474726434797,-1058.485184959136,-461.1577137862332,120.0
1731822248.1989152,-997.3266009837389,-494.51575144100934,-1071.582314603962,-475.10754062095657,121.0
1731822248.1989152,-995.8082016017288,-437.81512821279466,-1072.9660775875673,-451.7556052976288,121.0
1731822248.1994667,-985.4636383242905,-451.11795235518366,-1060.0596828404814,-456.8231697375886,122.0
1731822248.1994667,-981.525523670949,-476.1453628586605,-1060.328955637291,-472.5419692513533,122.0
1731822248.2122316,-992.4684709412977,-454.4689027154818,-1071.7356505021453,-459.9759054002352,123.0
1731822248.2122316,-989.6934651741758,-423.9438392771408,-1072.992256887257,-436.75860647531226,123.0
1731822248.2443144,-980.1492404872552,-490.58137668762356,-1062.3859006129205,-482.12359293783084,124.0
1731822248.2443144,-996.1186132980511,-491.77440477348864,-1078.1346193263307,-489.3303801524453,124.0
1731822248.2444756,-974.4122339552268,-431.67047258559614,-1051.1961199454963,-437.3719500680454,125.0
1731822248.2444756,-1000.5316952457651,-486.3104109382257,-1077.925184928812,-477.8414074885659,125.0
1731822248.2454906,-1003.1346656149253,-514.8047087006271,-1083.980082957074,-496.27911427011713,126.0
1731822248.2454906,-998.1531188739464,-476.88212314993143,-1071.4439383056015,-473.67141903797165,126.0
1731822248.2462678,-991.1183670572937,-481.4485409958288,-1055.6428609928116,-473.89955293526873,127.0
1731822248.2462678,-983.0401831530035,-521.2522962242365,-1057.0565431760624,-496.2828541700728,127.0
1731822248.2572236,-976.9628457250074,-501.4607456587255,-1057.7297251680866,-475.3543740180321,128.0
1731822248.2572236,-990.7668164614588,-468.9684948436916,-1056.3758813841268,-448.8235237323679,128.0
1731822248.272199,-988.9941038824618,-517.5049164686352,-1069.4430918293074,-493.3582524047233,129.0
1731822248.272199,-991.8065086491406,-517.9724039630964,-1062.7037921091542,-495.64707117760554,129.0
1731822248.2876325,-975.0143578480929,-440.9117653761059,-1046.0649772062898,-439.2007611463778,130.0
1731822248.2876325,-971.5212912894785,-492.2418922679499,-1056.252464685589,-480.45559755759314,130.0
1731822248.288368,-992.9172589359805,-518.593227355741,-1072.7828224897385,-500.61365831876174,131.0
1731822248.288368,-984.745577532798,-471.24609391670674,-1050.6613142518327,-469.19101889105514,131.0
1731822248.3022516,-998.7141038672999,-503.48029163479805,-1058.4403061596677,-492.2811612174846,132.0
1731822248.3022516,-964.6398753710091,-530.0896798195317,-1037.2014143113047,-499.0765594369732,132.0
1731822248.3176413,-976.5065779304132,-484.2572058625519,-1055.048216899857,-472.5120500517078,133.0
1731822248.3176413,-974.2626379569992,-466.23462797608227,-1045.5039922129363,-463.5699492576532,133.0
1731822248.318418,-985.2990827262402,-543.0297336662188,-1056.8396289786324,-506.9191296440549,134.0
1731822248.318418,-992.7751427376643,-527.7522423472255,-1069.2486170316115,-494.31566679337993,134.0
1731822248.332308,-970.5975360004231,-449.4387372750789,-1048.2004600809887,-437.8581370622851,135.0
1731822248.332308,-959.2170204352587,-491.8192835729569,-1046.158474705182,-478.0508418860845,135.0
1731822248.3476994,-994.6189134158194,-546.4293027259409,-1065.8079090723768,-514.769179651048,136.0
1731822248.3476994,-971.9027610849589,-462.23667492344975,-1056.4768586829305,-450.28956451499835,136.0
1731822248.348486,-954.3701100926846,-474.0472789835185,-1035.1070703361183,-458.11343522230163,137.0
1731822248.348486,-993.5530419284478,-527.1351588545367,-1069.3308948306367,-497.19912965921685,137.0
1731822248.3623133,-1004.9634766932577,-479.01760602463037,-1068.265023343265,-469.1573597914539,138.0
1731822248.3623133,-982.056589464657,-450.1455783667043,-1059.992364641279,-457.2345587327145,138.0
1731822248.3943267,-981.7686171680689,-486.24683263897896,-1055.22773209773,-485.6989372954704,139.0
1731822248.3943267,-1006.5828533740714,-484.13378916401416,-1079.3687863117084,-486.81716738222167,139.0
1731822248.3945448,-969.187593717128,-428.63367382157594,-1041.371402761899,-433.3702571154572,140.0
1731822248.3945448,-987.146593304351,-486.1234159404412,-1055.2090325979516,-480.19006466073915,140.0
1731822248.3955429,-1003.3141808127984,-493.6742739509791,-1071.511256504804,-480.8333274531178,141.0
1731822248.3955429,-989.0689018815756,-434.1238469565287,-1068.6128340391442,-435.7376137874089,141.0
1731822248.3963027,-949.2950658528134,-445.8147742180154,-1025.7012219475582,-456.1163286459632,142.0
1731822248.3963027,-999.9707102524117,-492.4101877659559,-1070.0526955220848,-483.2156437248923,142.0
1731822248.4073224,-1007.0316413687542,-478.6323963291943,-1070.991410410963,-469.4976906874217,143.0
1731822248.4073224,-978.5523032061756,-440.1338661853224,-1055.3661083960906,-436.8521039742045,143.0
1731822248.421736,-984.4987441357225,-495.36844863090664,-1061.6865393212065,-476.6857784022577,144.0
1731822248.421736,-1025.2786132525653,-482.73506658058614,-1097.4736419972032,-496.38383146887645,144.0
1731822248.4376316,-991.1969049563631,-445.2575291246176,-1061.4546655239537,-483.810287817847,145.0
1731822248.4376316,-972.3216298799962,-478.20230783428997,-1046.869055696763,-500.7034159176983,145.0
1731822248.438449,-978.8552351025864,-494.77754443790764,-1049.7225993629545,-501.1821231120266,146.0
1731822248.438449,-994.936804912053,-460.2283486472443,-1064.1586131919175,-477.82270798878744,146.0
1731822248.45173,-991.5746348518878,-484.485339759849,-1051.1437613461167,-491.94083032151684,147.0
1731822248.45173,-983.503930747509,-515.3133350946009,-1052.4602061305195,-507.01262714294717,147.0
1731822248.468109,-997.6070934804156,-451.4021847518161,-1067.8162353485823,-462.29090347280726,148.0
1731822248.468109,-981.5404832707718,-442.5498415566981,-1051.5514104412869,-452.5297645884566,148.0
1731822248.46965,-993.3847464304417,-500.1630003741011,-1068.0892480453476,-489.3154205526225,149.0
1731822248.46965,-1000.5354351457208,-479.7543663159013,-1060.8188825314865,-471.2891027661972,149.0
1731822248.4817085,-992.3600138425827,-464.1141047012061,-1056.7648309795186,-464.00377765251324,150.0
1731822248.4817085,-962.0443848017603,-496.9092874126509,-1031.0791980838403,-469.32939518941566,150.0
1731822248.4986913,-972.83025627397,-501.43082645908,-1049.5692634647712,-469.00776379322633,151.0
1731822248.4986913,-990.9725109590217,-451.331126652658,-1064.031456593424,-449.44060722505674,151.0
1731822248.4987345,-989.7458237735555,-458.5416537672281,-1052.1385747343302,-467.15277341520414,152.0
1731822248.4987345,-1008.6360584497452,-524.1207994902506,-1079.4398444108665,-517.8471173145808,152.0
1731822248.5281107,-1007.3906717645004,-468.87499734479934,-1069.4804908288643,-474.2024848316796,153.0
1731822248.5281107,-988.1862854920328,-449.292881176807,-1060.0447232406586,-464.9088334417902,153.0
1731822248.5289,-1013.4006909932941,-537.6741969296709,-1075.6737651554868,-528.6142892870121,154.0
1731822248.5289,-975.4369665430859,-484.4479407602921,-1051.1175820464268,-477.22806389583275,154.0
1731822248.5295131,-962.0817838013172,-461.9935814263299,-1031.5504254782572,-481.9440777399577,155.0
1731822248.5295131,-984.7867164323106,-488.22149981558323,-1046.8503561969846,-504.79860636917874,155.0
1731822248.5416555,-987.8197752963752,-502.6836929442361,-1057.8868009662256,-503.4036236857064,156.0
1731822248.5416555,-967.4373205378652,-430.7654167963192,-1035.798951827921,-446.1233159643598,156.0
1731822248.5574858,-972.0411373833194,-462.6966826179996,-1039.164861788042,-481.8767595407553,157.0
1731822248.5574858,-1001.2647156370804,-492.6009226636961,-1068.6128340391442,-494.5774597902782,157.0
1731822248.5581803,-998.9197983648628,-445.167771525681,-1054.6592673044652,-457.78058412624523,158.0
1731822248.5581803,-969.1202755179256,-427.44438563566655,-1046.7157197985798,-443.3819692968391,158.0
1731822248.5881484,-962.1229227008298,-461.09226553700864,-1032.9865470612422,-457.3093567318283,159.0
1731822248.5881484,-1001.1824378380552,-447.05268110334873,-1065.998643970117,-445.24817937472835,159.0
1731822248.5889385,-989.4391519771889,-401.605416841805,-1072.9398982878774,-423.09675193717703,160.0
1731822248.5889385,-985.8488480197266,-451.8060939470306,-1069.6263469271362,-460.3798145954497,160.0
1731822248.5896008,-1011.4260238166898,-467.4426156617701,-1084.9524569455534,-464.6059015453793,161.0
1731822248.5896008,-1014.8517721761018,-440.63501277938485,-1075.490510057658,-458.7903571142815,161.0
1731822248.6186073,-1013.2922338945791,-464.2674405993894,-1069.6076474273577,-469.37801388883963,162.0
1731822248.6186073,-1033.4428148558363,-495.58910272829235,-1084.185777454637,-493.49288880312815,162.0
1731822248.6192305,-1005.0345347924158,-426.95819864142686,-1067.7376974495128,-451.415274401661,163.0
1731822248.6192305,-989.7495636735111,-417.18584005720913,-1056.1477474868298,-430.78972614603117,163.0
1731822248.632534,-1024.6764893596992,-503.51395073439926,-1076.5077628456056,-517.615243517328,164.0
1731822248.632534,-1022.6083246842027,-445.5791605208069,-1073.4597443817183,-462.44797927094623,164.0
1731822248.6332817,-984.8054159320891,-421.4268866069615,-1051.1811603456736,-441.0407919245772,165.0
1731822248.6332817,-1007.6449849614874,-486.7479792330414,-1069.4767509289086,-501.45513580879197,165.0
1731822248.648235,-1013.3520722938702,-474.3464709799737,-1079.746516207233,-476.199591408018,166.0
1731822248.648235,-989.6972050741315,-427.9754514293745,-1053.3054235205054,-441.4222617200576,166.0
1731822248.648888,-993.7699561258778,-444.5506880329922,-1055.3810679959133,-456.2285256446339,167.0
1731822248.648888,-979.7677706917748,-478.35190383251756,-1051.4616528423503,-472.25399695476517,167.0
1731822248.661754,-1012.3609988056123,-457.82733287569135,-1072.1993980966508,-466.9508188175969,168.0
1731822248.661754,-996.9825301878154,-439.9767903871834,-1061.548163022846,-459.26158450869843,168.0
1731822248.6773927,-995.9465779000893,-499.9460861766711,-1050.9642461482435,-488.37670566374436,169.0
1731822248.6773927,-976.8132497267798,-452.7335891360417,-1050.175127257593,-454.9457399598323,169.0
1731822248.6780906,-1013.16133739613,-437.37008011806756,-1076.021575851366,-455.58526285225525,170.0
1731822248.6780906,-995.5464086048305,-505.47739821113646,-1057.4492326714098,-500.6959361177869,170.0
1731822248.6916752,-993.743776826188,-479.43273491971195,-1048.8138036737218,-469.9090796825476,171.0
1731822248.6916752,-970.7022531991825,-434.29588235449046,-1054.1581207104027,-443.17627479927614,171.0
1731822248.7073472,-980.7401446802542,-455.1009458079934,-1051.7533650388941,-466.0457630283199,172.0
1731822248.7073472,-987.0867549050599,-523.6832311954349,-1060.2765970379114,-505.1538968649693,172.0
1731822248.7080505,-996.1298329979181,-480.6818615049124,-1055.8036766909063,-469.8754205829464,173.0
1731822248.7080505,-1006.889525170438,-471.6313036121428,-1063.8295019958168,-475.30201541865245,173.0
1731822248.7217524,-994.177605221048,-486.1608149399981,-1066.9897174583748,-473.5480023394339,174.0
1731822248.7217524,-1000.6438922444358,-451.7761747473851,-1081.6613449845463,-441.2689258218743,174.0
1731822248.753826,-978.3204294089228,-441.1735583730042,-1049.0606370707974,-441.98698661336675,175.0
1731822248.753826,-1002.498882622458,-479.3467172207311,-1068.9868240347132,-478.3874328820966,175.0
1731822248.7546413,-1006.081706780009,-443.19684424903244,-1078.8414604179561,-450.20728671597317,176.0
1731822248.7546413,-1005.0607140921056,-431.62559378612787,-1061.0470164287835,-448.32237713830546,176.0
1731822248.755394,-990.4040461657569,-456.45852949190885,-1048.3762353789061,-466.89472031826153,177.0
1731822248.755394,-986.6342270104215,-481.62057639379054,-1058.2533111618832,-480.12274646153674,177.0
1731822248.7561374,-995.7895021019503,-461.0810458371416,-1065.4152195770293,-464.22443174989894,178.0
1731822248.7561374,-975.9343732371926,-450.05208086781204,-1047.12336889375,-467.29862951347604,178.0
1731822248.7672114,-1005.3412065887824,-520.0031696390361,-1061.8510949192569,-510.2626002044417,179.0
1731822248.7672114,-977.5163509184495,-457.1092720841989,-1052.3031303323805,-461.8944740775041,179.0
1731822248.7822046,-993.369786830619,-457.180330183357,-1060.8637613309547,-475.4628311167471,180.0
1731822248.7822046,-993.9232920240611,-519.8012150414288,-1082.2223299778998,-521.9348279661499,180.0
1731822248.7975354,-982.007970765233,-494.70274643879384,-1060.957258829847,-484.3189142118208,181.0
1731822248.7975354,-981.5666625704616,-456.1481177955866,-1039.8530033798888,-463.3866941598244,181.0
1731822248.7983043,-989.4765509767458,-476.3024386567995,-1043.865916032344,-486.173904589843,182.0
1731822248.7983043,-1020.2073089126498,-504.3516883244738,-1059.1621068511158,-492.7000300125219,182.0
1731822248.8122375,-992.0084632467479,-434.9952436462045,-1051.7159660393372,-435.9994067843072,183.0
1731822248.8122375,-993.6614990271628,-437.2092644199729,-1035.0322723370045,-450.81315050879493,183.0
1731822248.8276317,-999.5892404569313,-484.84063025563955,-1046.8316566972062,-474.45305812871084,184.0
1731822248.8276317,-998.2877552723512,-444.9097184287384,-1052.3367894319817,-441.06697122426704,184.0
1731822248.828407,-1001.0365817397833,-432.1005610805005,-1039.3032380864024,-440.39378923224285,185.0
1731822248.828407,-1006.3771588765085,-464.42077649757266,-1052.5462238295004,-472.99823704594746,185.0
1731822248.8422313,-1013.329632894136,-467.20700196456164,-1062.4980976115912,-458.59214241662994,186.0
1731822248.8422313,-1009.784207736142,-445.6838777195662,-1060.0335035407916,-451.4264941015281,186.0
1731822248.8576038,-988.377020389773,-448.78051488287747,-1038.4468009965494,-459.7290720031597,187.0
1731822248.8576038,-1009.8365663355216,-480.61080340575427,-1064.8243153840303,-469.0526425926946,187.0
1731822248.8583884,-1032.4480014676228,-464.959322091192,-1074.95944426395,-464.73305814387277,188.0
